title:Yellow                                                                          , recorded:15.11.15 18.42.35, sampling:128, subject:Yellow                                                                          , labels:COUNTER INTERPOLATED AF3 F7 F3 FC5 T7 P7 O1 O2 P8 T8 FC6 F4 F8 AF4 RAW_CQ GYROX GYROY MARKER SYNC TIME_STAMP_s TIME_STAMP_ms CQ_AF3 CQ_F7 CQ_F3 CQ_FC5 CQ_T7 CQ_P7 CQ_O1 CQ_O2 CQ_P8 CQ_T8 CQ_FC6 CQ_F4 CQ_F8 CQ_AF4 CQ_CMS CQ_DRL, chan:39, units:emotiv
69.00000000000000000000, 0.00000000000000000000, 4341.02539062500000000000, 3771.79467773437500000000, 4242.05126953125000000000, 4381.02539062500000000000, 4263.58984375000000000000, 4290.76904296875000000000, 4487.69238281250000000000, 4042.56396484375000000000, 3690.25634765625000000000, 4151.28173828125000000000, 4394.35888671875000000000, 4493.33300781250000000000, 4446.15380859375000000000, 4039.48706054687500000000, 516.00000000000000000000, 1684.00000000000000000000, 1689.00000000000000000000, 0.00000000000000000000, 0.00000000000000000000, 1474.00000000000000000000, 520.00000000000000000000, 0.00000000000000000000, 0.00000000000000000000, 0.00000000000000000000, 0.00000000000000000000, 0.00000000000000000000, 4.00000000000000000000, 0.00000000000000000000, 0.00000000000000000000, 0.00000000000000000000, 0.00000000000000000000, 0.00000000000000000000, 0.00000000000000000000, 0.00000000000000000000, 0.00000000000000000000, 0.00000000000000000000, 0.00000000000000000000
70.00000000000000000000, 0.00000000000000000000, 4343.58984375000000000000, 3771.79467773437500000000, 4246.15380859375000000000, 4381.02539062500000000000, 4265.12792968750000000000, 4290.76904296875000000000, 4487.17919921875000000000, 4055.89721679687500000000, 3692.82031250000000000000, 4157.94873046875000000000, 4397.94873046875000000000, 4498.97412109375000000000, 4448.20507812500000000000, 4043.58959960937500000000, 503.00000000000000000000, 1682.00000000000000000000, 1691.00000000000000000000, 0.00000000000000000000, 0.00000000000000000000, 1474.00000000000000000000, 527.00000000000000000000, 0.00000000000000000000, 0.00000000000000000000, 0.00000000000000000000, 0.00000000000000000000, 0.00000000000000000000, 4.00000000000000000000, 4.00000000000000000000, 0.00000000000000000000, 0.00000000000000000000, 0.00000000000000000000, 0.00000000000000000000, 0.00000000000000000000, 0.00000000000000000000, 0.00000000000000000000, 0.00000000000000000000, 0.00000000000000000000
71.00000000000000000000, 0.00000000000000000000, 4352.30761718750000000000, 3775.89746093750000000000, 4253.33300781250000000000, 4385.12792968750000000000, 4275.38427734375000000000, 4292.30761718750000000000, 4487.17919921875000000000, 4070.25634765625000000000, 3697.94873046875000000000, 4169.23046875000000000000, 4405.12792968750000000000, 4506.66650390625000000000, 4457.94873046875000000000, 4048.71777343750000000000, 474.00000000000000000000, 1683.00000000000000000000, 1693.00000000000000000000, 0.00000000000000000000, 0.00000000000000000000, 1474.00000000000000000000, 535.00000000000000000000, 0.00000000000000000000, 0.00000000000000000000, 0.00000000000000000000, 0.00000000000000000000, 0.00000000000000000000, 4.00000000000000000000, 4.00000000000000000000, 4.00000000000000000000, 0.00000000000000000000, 0.00000000000000000000, 0.00000000000000000000, 0.00000000000000000000, 0.00000000000000000000, 0.00000000000000000000, 0.00000000000000000000, 0.00000000000000000000
72.00000000000000000000, 0.00000000000000000000, 4354.87158203125000000000, 3781.53833007812500000000, 4257.43603515625000000000, 4390.76904296875000000000, 4282.05126953125000000000, 4295.89746093750000000000, 4488.71777343750000000000, 4068.71777343750000000000, 3700.00000000000000000000, 4173.33300781250000000000, 4415.89746093750000000000, 4510.76904296875000000000, 4462.56396484375000000000, 4051.28198242187500000000, 223.00000000000000000000, 1682.00000000000000000000, 1694.00000000000000000000, 0.00000000000000000000, 0.00000000000000000000, 1474.00000000000000000000, 543.00000000000000000000, 0.00000000000000000000, 0.00000000000000000000, 0.00000000000000000000, 0.00000000000000000000, 0.00000000000000000000, 4.00000000000000000000, 4.00000000000000000000, 4.00000000000000000000, 2.00000000000000000000, 0.00000000000000000000, 0.00000000000000000000, 0.00000000000000000000, 0.00000000000000000000, 0.00000000000000000000, 0.00000000000000000000, 0.00000000000000000000
73.00000000000000000000, 0.00000000000000000000, 4346.15380859375000000000, 3774.87158203125000000000, 4253.33300781250000000000, 4387.17919921875000000000, 4280.00000000000000000000, 4296.41015625000000000000, 4491.79492187500000000000, 4062.05126953125000000000, 3696.92309570312500000000, 4170.25634765625000000000, 4414.35888671875000000000, 4507.17919921875000000000, 4454.35888671875000000000, 4046.15380859375000000000, 423.00000000000000000000, 1681.00000000000000000000, 1696.00000000000000000000, 0.00000000000000000000, 0.00000000000000000000, 1474.00000000000000000000, 551.00000000000000000000, 0.00000000000000000000, 0.00000000000000000000, 0.00000000000000000000, 0.00000000000000000000, 0.00000000000000000000, 4.00000000000000000000, 4.00000000000000000000, 4.00000000000000000000, 2.00000000000000000000, 4.00000000000000000000, 0.00000000000000000000, 0.00000000000000000000, 0.00000000000000000000, 0.00000000000000000000, 0.00000000000000000000, 0.00000000000000000000
74.00000000000000000000, 0.00000000000000000000, 4329.74365234375000000000, 3758.97436523437500000000, 4240.00000000000000000000, 4377.94873046875000000000, 4276.92285156250000000000, 4293.84619140625000000000, 4485.64111328125000000000, 4060.51269531250000000000, 3693.84594726562500000000, 4161.02539062500000000000, 4394.35888671875000000000, 4494.87158203125000000000, 4439.48730468750000000000, 4030.76904296875000000000, 477.00000000000000000000, 1682.00000000000000000000, 1694.00000000000000000000, 0.00000000000000000000, 0.00000000000000000000, 1474.00000000000000000000, 559.00000000000000000000, 0.00000000000000000000, 0.00000000000000000000, 0.00000000000000000000, 0.00000000000000000000, 0.00000000000000000000, 4.00000000000000000000, 4.00000000000000000000, 4.00000000000000000000, 2.00000000000000000000, 4.00000000000000000000, 4.00000000000000000000, 0.00000000000000000000, 0.00000000000000000000, 0.00000000000000000000, 0.00000000000000000000, 0.00000000000000000000
75.00000000000000000000, 0.00000000000000000000, 4313.84619140625000000000, 3747.69213867187500000000, 4224.10253906250000000000, 4368.71777343750000000000, 4276.41015625000000000000, 4292.82031250000000000000, 4480.00000000000000000000, 4058.97436523437500000000, 3692.82031250000000000000, 4152.30761718750000000000, 4374.87158203125000000000, 4473.84619140625000000000, 4419.48730468750000000000, 4015.38452148437500000000, 421.00000000000000000000, 1681.00000000000000000000, 1694.00000000000000000000, 0.00000000000000000000, 0.00000000000000000000, 1474.00000000000000000000, 566.00000000000000000000, 0.00000000000000000000, 0.00000000000000000000, 0.00000000000000000000, 0.00000000000000000000, 0.00000000000000000000, 4.00000000000000000000, 4.00000000000000000000, 4.00000000000000000000, 2.00000000000000000000, 4.00000000000000000000, 4.00000000000000000000, 4.00000000000000000000, 0.00000000000000000000, 0.00000000000000000000, 0.00000000000000000000, 0.00000000000000000000
76.00000000000000000000, 0.00000000000000000000, 4297.94873046875000000000, 3740.00000000000000000000, 4213.84619140625000000000, 4356.92285156250000000000, 4271.79492187500000000000, 4295.38427734375000000000, 4486.15380859375000000000, 4052.82031250000000000000, 3690.76904296875000000000, 4150.76904296875000000000, 4370.76904296875000000000, 4460.00000000000000000000, 4408.20507812500000000000, 4011.28198242187500000000, 467.00000000000000000000, 1682.00000000000000000000, 1692.00000000000000000000, 0.00000000000000000000, 0.00000000000000000000, 1474.00000000000000000000, 574.00000000000000000000, 0.00000000000000000000, 0.00000000000000000000, 0.00000000000000000000, 0.00000000000000000000, 0.00000000000000000000, 4.00000000000000000000, 4.00000000000000000000, 4.00000000000000000000, 2.00000000000000000000, 4.00000000000000000000, 4.00000000000000000000, 4.00000000000000000000, 4.00000000000000000000, 0.00000000000000000000, 0.00000000000000000000, 0.00000000000000000000
77.00000000000000000000, 0.00000000000000000000, 4292.30761718750000000000, 3733.84594726562500000000, 4212.82031250000000000000, 4352.82031250000000000000, 4264.61523437500000000000, 4295.89746093750000000000, 4485.64111328125000000000, 4051.79467773437500000000, 3689.74340820312500000000, 4151.28173828125000000000, 4372.30761718750000000000, 4463.58984375000000000000, 4410.25634765625000000000, 4016.92309570312500000000, 458.00000000000000000000, 1681.00000000000000000000, 1691.00000000000000000000, 0.00000000000000000000, 0.00000000000000000000, 1474.00000000000000000000, 582.00000000000000000000, 0.00000000000000000000, 0.00000000000000000000, 0.00000000000000000000, 0.00000000000000000000, 0.00000000000000000000, 4.00000000000000000000, 4.00000000000000000000, 4.00000000000000000000, 2.00000000000000000000, 4.00000000000000000000, 4.00000000000000000000, 4.00000000000000000000, 4.00000000000000000000, 4.00000000000000000000, 0.00000000000000000000, 0.00000000000000000000
78.00000000000000000000, 0.00000000000000000000, 4300.51269531250000000000, 3735.38452148437500000000, 4218.97412109375000000000, 4361.02539062500000000000, 4262.05126953125000000000, 4287.69238281250000000000, 4474.35888671875000000000, 4050.25634765625000000000, 3692.30761718750000000000, 4149.23046875000000000000, 4373.33300781250000000000, 4471.79492187500000000000, 4413.33300781250000000000, 4025.12817382812500000000, 477.00000000000000000000, 1682.00000000000000000000, 1690.00000000000000000000, 0.00000000000000000000, 0.00000000000000000000, 1474.00000000000000000000, 590.00000000000000000000, 0.00000000000000000000, 0.00000000000000000000, 0.00000000000000000000, 0.00000000000000000000, 0.00000000000000000000, 4.00000000000000000000, 4.00000000000000000000, 4.00000000000000000000, 2.00000000000000000000, 4.00000000000000000000, 4.00000000000000000000, 4.00000000000000000000, 4.00000000000000000000, 4.00000000000000000000, 0.00000000000000000000, 0.00000000000000000000
79.00000000000000000000, 0.00000000000000000000, 4312.82031250000000000000, 3743.07690429687500000000, 4230.76904296875000000000, 4367.17919921875000000000, 4264.61523437500000000000, 4280.51269531250000000000, 4470.25634765625000000000, 4046.66650390625000000000, 3698.46142578125000000000, 4153.33300781250000000000, 4383.07666015625000000000, 4483.07666015625000000000, 4417.43554687500000000000, 4031.79467773437500000000, 421.00000000000000000000, 1682.00000000000000000000, 1689.00000000000000000000, 0.00000000000000000000, 0.00000000000000000000, 1474.00000000000000000000, 598.00000000000000000000, 0.00000000000000000000, 0.00000000000000000000, 0.00000000000000000000, 0.00000000000000000000, 0.00000000000000000000, 4.00000000000000000000, 4.00000000000000000000, 4.00000000000000000000, 2.00000000000000000000, 4.00000000000000000000, 4.00000000000000000000, 4.00000000000000000000, 4.00000000000000000000, 4.00000000000000000000, 0.00000000000000000000, 0.00000000000000000000
80.00000000000000000000, 0.00000000000000000000, 4316.92285156250000000000, 3749.23071289062500000000, 4237.43603515625000000000, 4368.20507812500000000000, 4268.20507812500000000000, 4281.53857421875000000000, 4473.33300781250000000000, 4053.33325195312500000000, 3701.02563476562500000000, 4158.46142578125000000000, 4391.79492187500000000000, 4491.79492187500000000000, 4420.00000000000000000000, 4031.28198242187500000000, 467.00000000000000000000, 1682.00000000000000000000, 1689.00000000000000000000, 0.00000000000000000000, 0.00000000000000000000, 1474.00000000000000000000, 606.00000000000000000000, 0.00000000000000000000, 0.00000000000000000000, 0.00000000000000000000, 0.00000000000000000000, 0.00000000000000000000, 4.00000000000000000000, 4.00000000000000000000, 4.00000000000000000000, 2.00000000000000000000, 4.00000000000000000000, 4.00000000000000000000, 4.00000000000000000000, 4.00000000000000000000, 4.00000000000000000000, 0.00000000000000000000, 0.00000000000000000000
81.00000000000000000000, 0.00000000000000000000, 4305.12792968750000000000, 3744.61523437500000000000, 4226.15380859375000000000, 4365.64111328125000000000, 4264.10253906250000000000, 4282.05126953125000000000, 4473.84619140625000000000, 4058.46142578125000000000, 3697.94873046875000000000, 4156.92285156250000000000, 4387.69238281250000000000, 4484.10253906250000000000, 4417.94873046875000000000, 4026.15380859375000000000, 458.00000000000000000000, 1681.00000000000000000000, 1688.00000000000000000000, 0.00000000000000000000, 0.00000000000000000000, 1474.00000000000000000000, 613.00000000000000000000, 0.00000000000000000000, 0.00000000000000000000, 0.00000000000000000000, 0.00000000000000000000, 0.00000000000000000000, 4.00000000000000000000, 4.00000000000000000000, 4.00000000000000000000, 2.00000000000000000000, 4.00000000000000000000, 4.00000000000000000000, 4.00000000000000000000, 4.00000000000000000000, 4.00000000000000000000, 0.00000000000000000000, 0.00000000000000000000
82.00000000000000000000, 0.00000000000000000000, 4286.66650390625000000000, 3731.79467773437500000000, 4211.28173828125000000000, 4355.38427734375000000000, 4251.79492187500000000000, 4280.51269531250000000000, 4473.33300781250000000000, 4045.12817382812500000000, 3698.97436523437500000000, 4153.33300781250000000000, 4382.56396484375000000000, 4473.84619140625000000000, 4414.87158203125000000000, 4025.12817382812500000000, 477.00000000000000000000, 1682.00000000000000000000, 1689.00000000000000000000, 0.00000000000000000000, 0.00000000000000000000, 1474.00000000000000000000, 621.00000000000000000000, 0.00000000000000000000, 0.00000000000000000000, 0.00000000000000000000, 0.00000000000000000000, 0.00000000000000000000, 4.00000000000000000000, 4.00000000000000000000, 4.00000000000000000000, 2.00000000000000000000, 4.00000000000000000000, 4.00000000000000000000, 4.00000000000000000000, 4.00000000000000000000, 4.00000000000000000000, 0.00000000000000000000, 0.00000000000000000000
83.00000000000000000000, 0.00000000000000000000, 4277.94873046875000000000, 3723.58959960937500000000, 4205.64111328125000000000, 4344.61523437500000000000, 4246.15380859375000000000, 4277.43603515625000000000, 4466.15380859375000000000, 4030.25634765625000000000, 3701.02563476562500000000, 4146.66650390625000000000, 4378.97412109375000000000, 4474.35888671875000000000, 4407.69238281250000000000, 4024.61523437500000000000, 421.00000000000000000000, 1682.00000000000000000000, 1688.00000000000000000000, 0.00000000000000000000, 0.00000000000000000000, 1474.00000000000000000000, 628.00000000000000000000, 0.00000000000000000000, 0.00000000000000000000, 0.00000000000000000000, 0.00000000000000000000, 0.00000000000000000000, 4.00000000000000000000, 4.00000000000000000000, 4.00000000000000000000, 2.00000000000000000000, 4.00000000000000000000, 4.00000000000000000000, 4.00000000000000000000, 4.00000000000000000000, 4.00000000000000000000, 0.00000000000000000000, 0.00000000000000000000
84.00000000000000000000, 0.00000000000000000000, 4281.53857421875000000000, 3721.02563476562500000000, 4203.58984375000000000000, 4340.51269531250000000000, 4248.71777343750000000000, 4269.74365234375000000000, 4458.97412109375000000000, 4028.71777343750000000000, 3693.84594726562500000000, 4139.48730468750000000000, 4367.17919921875000000000, 4472.82031250000000000000, 4397.94873046875000000000, 4021.02563476562500000000, 467.00000000000000000000, 1681.00000000000000000000, 1690.00000000000000000000, 0.00000000000000000000, 0.00000000000000000000, 1474.00000000000000000000, 637.00000000000000000000, 0.00000000000000000000, 0.00000000000000000000, 0.00000000000000000000, 0.00000000000000000000, 0.00000000000000000000, 4.00000000000000000000, 4.00000000000000000000, 4.00000000000000000000, 2.00000000000000000000, 4.00000000000000000000, 4.00000000000000000000, 4.00000000000000000000, 4.00000000000000000000, 4.00000000000000000000, 0.00000000000000000000, 0.00000000000000000000
85.00000000000000000000, 0.00000000000000000000, 4283.07666015625000000000, 3717.94873046875000000000, 4202.05126953125000000000, 4339.48730468750000000000, 4248.71777343750000000000, 4263.07666015625000000000, 4458.97412109375000000000, 4022.05126953125000000000, 3682.56396484375000000000, 4134.35888671875000000000, 4357.43554687500000000000, 4464.61523437500000000000, 4394.87158203125000000000, 4021.02563476562500000000, 458.00000000000000000000, 1683.00000000000000000000, 1688.00000000000000000000, 0.00000000000000000000, 0.00000000000000000000, 1474.00000000000000000000, 645.00000000000000000000, 0.00000000000000000000, 0.00000000000000000000, 0.00000000000000000000, 0.00000000000000000000, 0.00000000000000000000, 4.00000000000000000000, 4.00000000000000000000, 4.00000000000000000000, 2.00000000000000000000, 4.00000000000000000000, 4.00000000000000000000, 4.00000000000000000000, 4.00000000000000000000, 4.00000000000000000000, 0.00000000000000000000, 0.00000000000000000000
86.00000000000000000000, 0.00000000000000000000, 4280.00000000000000000000, 3718.46142578125000000000, 4201.02539062500000000000, 4338.97412109375000000000, 4247.17919921875000000000, 4264.10253906250000000000, 4458.46142578125000000000, 4014.35888671875000000000, 3681.02563476562500000000, 4126.66650390625000000000, 4352.82031250000000000000, 4460.00000000000000000000, 4388.71777343750000000000, 4023.58959960937500000000, 477.00000000000000000000, 1682.00000000000000000000, 1690.00000000000000000000, 0.00000000000000000000, 0.00000000000000000000, 1474.00000000000000000000, 653.00000000000000000000, 0.00000000000000000000, 0.00000000000000000000, 0.00000000000000000000, 0.00000000000000000000, 0.00000000000000000000, 4.00000000000000000000, 4.00000000000000000000, 4.00000000000000000000, 2.00000000000000000000, 4.00000000000000000000, 4.00000000000000000000, 4.00000000000000000000, 4.00000000000000000000, 4.00000000000000000000, 0.00000000000000000000, 0.00000000000000000000
87.00000000000000000000, 0.00000000000000000000, 4278.46142578125000000000, 3723.07690429687500000000, 4198.97412109375000000000, 4341.02539062500000000000, 4247.17919921875000000000, 4271.28173828125000000000, 4465.64111328125000000000, 4023.58959960937500000000, 3685.64086914062500000000, 4123.07666015625000000000, 4346.66650390625000000000, 4457.43554687500000000000, 4381.53857421875000000000, 4022.56396484375000000000, 421.00000000000000000000, 1683.00000000000000000000, 1690.00000000000000000000, 0.00000000000000000000, 0.00000000000000000000, 1474.00000000000000000000, 660.00000000000000000000, 0.00000000000000000000, 0.00000000000000000000, 0.00000000000000000000, 0.00000000000000000000, 0.00000000000000000000, 4.00000000000000000000, 4.00000000000000000000, 4.00000000000000000000, 2.00000000000000000000, 4.00000000000000000000, 4.00000000000000000000, 4.00000000000000000000, 4.00000000000000000000, 4.00000000000000000000, 0.00000000000000000000, 0.00000000000000000000
88.00000000000000000000, 0.00000000000000000000, 4279.48730468750000000000, 3724.61523437500000000000, 4198.97412109375000000000, 4346.66650390625000000000, 4252.82031250000000000000, 4278.46142578125000000000, 4475.89746093750000000000, 4043.58959960937500000000, 3692.82031250000000000000, 4132.30761718750000000000, 4351.79492187500000000000, 4463.58984375000000000000, 4389.74365234375000000000, 4022.05126953125000000000, 467.00000000000000000000, 1682.00000000000000000000, 1691.00000000000000000000, 0.00000000000000000000, 0.00000000000000000000, 1474.00000000000000000000, 668.00000000000000000000, 0.00000000000000000000, 0.00000000000000000000, 0.00000000000000000000, 0.00000000000000000000, 0.00000000000000000000, 4.00000000000000000000, 4.00000000000000000000, 4.00000000000000000000, 2.00000000000000000000, 4.00000000000000000000, 4.00000000000000000000, 4.00000000000000000000, 4.00000000000000000000, 4.00000000000000000000, 0.00000000000000000000, 0.00000000000000000000
89.00000000000000000000, 0.00000000000000000000, 4285.64111328125000000000, 3727.17944335937500000000, 4207.69238281250000000000, 4351.28173828125000000000, 4262.05126953125000000000, 4283.07666015625000000000, 4476.92285156250000000000, 4055.38452148437500000000, 3697.43579101562500000000, 4143.07666015625000000000, 4371.28173828125000000000, 4476.41015625000000000000, 4407.17919921875000000000, 4029.23071289062500000000, 458.00000000000000000000, 1683.00000000000000000000, 1693.00000000000000000000, 0.00000000000000000000, 0.00000000000000000000, 1474.00000000000000000000, 676.00000000000000000000, 0.00000000000000000000, 0.00000000000000000000, 0.00000000000000000000, 0.00000000000000000000, 0.00000000000000000000, 4.00000000000000000000, 4.00000000000000000000, 4.00000000000000000000, 2.00000000000000000000, 4.00000000000000000000, 4.00000000000000000000, 4.00000000000000000000, 4.00000000000000000000, 4.00000000000000000000, 0.00000000000000000000, 0.00000000000000000000
90.00000000000000000000, 0.00000000000000000000, 4291.79492187500000000000, 3734.87158203125000000000, 4216.92285156250000000000, 4351.28173828125000000000, 4267.69238281250000000000, 4290.25634765625000000000, 4474.35888671875000000000, 4061.02563476562500000000, 3699.48706054687500000000, 4155.38427734375000000000, 4382.56396484375000000000, 4479.48730468750000000000, 4415.38427734375000000000, 4037.94873046875000000000, 477.00000000000000000000, 1682.00000000000000000000, 1693.00000000000000000000, 0.00000000000000000000, 0.00000000000000000000, 1474.00000000000000000000, 684.00000000000000000000, 0.00000000000000000000, 0.00000000000000000000, 0.00000000000000000000, 0.00000000000000000000, 0.00000000000000000000, 4.00000000000000000000, 4.00000000000000000000, 4.00000000000000000000, 2.00000000000000000000, 4.00000000000000000000, 4.00000000000000000000, 4.00000000000000000000, 4.00000000000000000000, 4.00000000000000000000, 0.00000000000000000000, 0.00000000000000000000
91.00000000000000000000, 0.00000000000000000000, 4291.28173828125000000000, 3735.38452148437500000000, 4216.92285156250000000000, 4351.79492187500000000000, 4265.12792968750000000000, 4296.41015625000000000000, 4473.84619140625000000000, 4069.23071289062500000000, 3702.56396484375000000000, 4169.74365234375000000000, 4381.02539062500000000000, 4475.89746093750000000000, 4414.35888671875000000000, 4036.92309570312500000000, 421.00000000000000000000, 1683.00000000000000000000, 1694.00000000000000000000, 0.00000000000000000000, 0.00000000000000000000, 1474.00000000000000000000, 692.00000000000000000000, 0.00000000000000000000, 0.00000000000000000000, 0.00000000000000000000, 0.00000000000000000000, 0.00000000000000000000, 4.00000000000000000000, 4.00000000000000000000, 4.00000000000000000000, 2.00000000000000000000, 4.00000000000000000000, 4.00000000000000000000, 4.00000000000000000000, 4.00000000000000000000, 4.00000000000000000000, 0.00000000000000000000, 0.00000000000000000000
92.00000000000000000000, 0.00000000000000000000, 4285.12792968750000000000, 3723.58959960937500000000, 4207.17919921875000000000, 4350.25634765625000000000, 4256.92285156250000000000, 4289.74365234375000000000, 4474.35888671875000000000, 4066.66650390625000000000, 3704.10253906250000000000, 4168.71777343750000000000, 4382.56396484375000000000, 4477.43554687500000000000, 4408.71777343750000000000, 4030.76904296875000000000, 467.00000000000000000000, 1683.00000000000000000000, 1693.00000000000000000000, 0.00000000000000000000, 0.00000000000000000000, 1474.00000000000000000000, 699.00000000000000000000, 0.00000000000000000000, 0.00000000000000000000, 0.00000000000000000000, 0.00000000000000000000, 0.00000000000000000000, 4.00000000000000000000, 4.00000000000000000000, 4.00000000000000000000, 2.00000000000000000000, 4.00000000000000000000, 4.00000000000000000000, 4.00000000000000000000, 4.00000000000000000000, 4.00000000000000000000, 0.00000000000000000000, 0.00000000000000000000
93.00000000000000000000, 0.00000000000000000000, 4278.97412109375000000000, 3714.35888671875000000000, 4200.00000000000000000000, 4343.07666015625000000000, 4248.20507812500000000000, 4278.97412109375000000000, 4474.35888671875000000000, 4053.84594726562500000000, 3698.46142578125000000000, 4154.35888671875000000000, 4376.92285156250000000000, 4473.84619140625000000000, 4397.43554687500000000000, 4028.71777343750000000000, 458.00000000000000000000, 1682.00000000000000000000, 1693.00000000000000000000, 0.00000000000000000000, 0.00000000000000000000, 1474.00000000000000000000, 707.00000000000000000000, 0.00000000000000000000, 0.00000000000000000000, 0.00000000000000000000, 0.00000000000000000000, 0.00000000000000000000, 4.00000000000000000000, 4.00000000000000000000, 4.00000000000000000000, 2.00000000000000000000, 4.00000000000000000000, 4.00000000000000000000, 4.00000000000000000000, 4.00000000000000000000, 4.00000000000000000000, 0.00000000000000000000, 0.00000000000000000000
94.00000000000000000000, 0.00000000000000000000, 4277.43603515625000000000, 3715.38452148437500000000, 4198.97412109375000000000, 4337.94873046875000000000, 4244.61523437500000000000, 4277.43603515625000000000, 4474.35888671875000000000, 4049.74340820312500000000, 3693.33325195312500000000, 4145.12792968750000000000, 4362.56396484375000000000, 4462.05126953125000000000, 4388.71777343750000000000, 4028.71777343750000000000, 477.00000000000000000000, 1682.00000000000000000000, 1692.00000000000000000000, 0.00000000000000000000, 0.00000000000000000000, 1474.00000000000000000000, 715.00000000000000000000, 0.00000000000000000000, 0.00000000000000000000, 0.00000000000000000000, 0.00000000000000000000, 0.00000000000000000000, 4.00000000000000000000, 4.00000000000000000000, 4.00000000000000000000, 2.00000000000000000000, 4.00000000000000000000, 4.00000000000000000000, 4.00000000000000000000, 4.00000000000000000000, 4.00000000000000000000, 0.00000000000000000000, 0.00000000000000000000
95.00000000000000000000, 0.00000000000000000000, 4276.92285156250000000000, 3720.00000000000000000000, 4200.51269531250000000000, 4341.53857421875000000000, 4249.23046875000000000000, 4278.46142578125000000000, 4477.94873046875000000000, 4053.33325195312500000000, 3694.35888671875000000000, 4137.94873046875000000000, 4357.43554687500000000000, 4457.94873046875000000000, 4387.69238281250000000000, 4027.69213867187500000000, 421.00000000000000000000, 1682.00000000000000000000, 1691.00000000000000000000, 0.00000000000000000000, 0.00000000000000000000, 1474.00000000000000000000, 723.00000000000000000000, 0.00000000000000000000, 0.00000000000000000000, 0.00000000000000000000, 0.00000000000000000000, 0.00000000000000000000, 4.00000000000000000000, 4.00000000000000000000, 4.00000000000000000000, 2.00000000000000000000, 4.00000000000000000000, 4.00000000000000000000, 4.00000000000000000000, 4.00000000000000000000, 4.00000000000000000000, 0.00000000000000000000, 0.00000000000000000000
96.00000000000000000000, 0.00000000000000000000, 4283.58984375000000000000, 3728.71777343750000000000, 4206.15380859375000000000, 4352.82031250000000000000, 4256.92285156250000000000, 4284.10253906250000000000, 4487.69238281250000000000, 4056.41015625000000000000, 3697.94873046875000000000, 4141.02539062500000000000, 4368.71777343750000000000, 4466.15380859375000000000, 4395.38427734375000000000, 4033.33325195312500000000, 467.00000000000000000000, 1681.00000000000000000000, 1691.00000000000000000000, 0.00000000000000000000, 0.00000000000000000000, 1474.00000000000000000000, 731.00000000000000000000, 0.00000000000000000000, 0.00000000000000000000, 0.00000000000000000000, 0.00000000000000000000, 0.00000000000000000000, 4.00000000000000000000, 4.00000000000000000000, 4.00000000000000000000, 2.00000000000000000000, 4.00000000000000000000, 4.00000000000000000000, 4.00000000000000000000, 4.00000000000000000000, 4.00000000000000000000, 0.00000000000000000000, 0.00000000000000000000
97.00000000000000000000, 0.00000000000000000000, 4301.02539062500000000000, 3744.61523437500000000000, 4221.02539062500000000000, 4363.07666015625000000000, 4266.15380859375000000000, 4295.38427734375000000000, 4492.82031250000000000000, 4060.00000000000000000000, 3700.51269531250000000000, 4154.35888671875000000000, 4384.10253906250000000000, 4479.48730468750000000000, 4408.71777343750000000000, 4043.58959960937500000000, 458.00000000000000000000, 1683.00000000000000000000, 1691.00000000000000000000, 0.00000000000000000000, 0.00000000000000000000, 1474.00000000000000000000, 739.00000000000000000000, 0.00000000000000000000, 0.00000000000000000000, 0.00000000000000000000, 0.00000000000000000000, 0.00000000000000000000, 4.00000000000000000000, 4.00000000000000000000, 4.00000000000000000000, 2.00000000000000000000, 4.00000000000000000000, 4.00000000000000000000, 4.00000000000000000000, 4.00000000000000000000, 4.00000000000000000000, 0.00000000000000000000, 0.00000000000000000000
98.00000000000000000000, 0.00000000000000000000, 4314.87158203125000000000, 3756.92309570312500000000, 4234.35888671875000000000, 4369.23046875000000000000, 4274.35888671875000000000, 4300.00000000000000000000, 4490.25634765625000000000, 4061.02563476562500000000, 3701.02563476562500000000, 4159.48730468750000000000, 4391.79492187500000000000, 4491.28173828125000000000, 4417.94873046875000000000, 4054.35888671875000000000, 477.00000000000000000000, 1683.00000000000000000000, 1690.00000000000000000000, 0.00000000000000000000, 0.00000000000000000000, 1474.00000000000000000000, 747.00000000000000000000, 0.00000000000000000000, 0.00000000000000000000, 0.00000000000000000000, 0.00000000000000000000, 0.00000000000000000000, 4.00000000000000000000, 4.00000000000000000000, 4.00000000000000000000, 2.00000000000000000000, 4.00000000000000000000, 4.00000000000000000000, 4.00000000000000000000, 4.00000000000000000000, 4.00000000000000000000, 0.00000000000000000000, 0.00000000000000000000
99.00000000000000000000, 0.00000000000000000000, 4316.41015625000000000000, 3754.87158203125000000000, 4236.92285156250000000000, 4371.28173828125000000000, 4273.84619140625000000000, 4295.38427734375000000000, 4487.17919921875000000000, 4056.41015625000000000000, 3701.02563476562500000000, 4156.92285156250000000000, 4390.25634765625000000000, 4496.41015625000000000000, 4417.43554687500000000000, 4062.56396484375000000000, 421.00000000000000000000, 1684.00000000000000000000, 1691.00000000000000000000, 0.00000000000000000000, 0.00000000000000000000, 1474.00000000000000000000, 754.00000000000000000000, 0.00000000000000000000, 0.00000000000000000000, 0.00000000000000000000, 0.00000000000000000000, 0.00000000000000000000, 4.00000000000000000000, 4.00000000000000000000, 4.00000000000000000000, 2.00000000000000000000, 4.00000000000000000000, 4.00000000000000000000, 4.00000000000000000000, 4.00000000000000000000, 4.00000000000000000000, 0.00000000000000000000, 0.00000000000000000000
100.00000000000000000000, 0.00000000000000000000, 4313.84619140625000000000, 3748.20507812500000000000, 4237.94873046875000000000, 4369.74365234375000000000, 4268.71777343750000000000, 4295.89746093750000000000, 4487.69238281250000000000, 4060.51269531250000000000, 3704.10253906250000000000, 4157.94873046875000000000, 4386.66650390625000000000, 4494.35888671875000000000, 4415.38427734375000000000, 4063.58959960937500000000, 467.00000000000000000000, 1683.00000000000000000000, 1689.00000000000000000000, 0.00000000000000000000, 0.00000000000000000000, 1474.00000000000000000000, 762.00000000000000000000, 0.00000000000000000000, 0.00000000000000000000, 0.00000000000000000000, 0.00000000000000000000, 0.00000000000000000000, 4.00000000000000000000, 4.00000000000000000000, 4.00000000000000000000, 2.00000000000000000000, 4.00000000000000000000, 4.00000000000000000000, 4.00000000000000000000, 4.00000000000000000000, 4.00000000000000000000, 0.00000000000000000000, 0.00000000000000000000
101.00000000000000000000, 0.00000000000000000000, 4311.79492187500000000000, 3741.53833007812500000000, 4236.41015625000000000000, 4366.66650390625000000000, 4263.58984375000000000000, 4295.38427734375000000000, 4490.25634765625000000000, 4072.82031250000000000000, 3704.10253906250000000000, 4157.94873046875000000000, 4386.15380859375000000000, 4492.82031250000000000000, 4416.41015625000000000000, 4054.87158203125000000000, 458.00000000000000000000, 1684.00000000000000000000, 1691.00000000000000000000, 0.00000000000000000000, 0.00000000000000000000, 1474.00000000000000000000, 770.00000000000000000000, 0.00000000000000000000, 0.00000000000000000000, 0.00000000000000000000, 0.00000000000000000000, 0.00000000000000000000, 4.00000000000000000000, 4.00000000000000000000, 4.00000000000000000000, 2.00000000000000000000, 4.00000000000000000000, 4.00000000000000000000, 4.00000000000000000000, 4.00000000000000000000, 4.00000000000000000000, 0.00000000000000000000, 0.00000000000000000000
102.00000000000000000000, 0.00000000000000000000, 4306.66650390625000000000, 3735.89746093750000000000, 4233.84619140625000000000, 4361.53857421875000000000, 4262.05126953125000000000, 4285.12792968750000000000, 4486.66650390625000000000, 4062.05126953125000000000, 3700.00000000000000000000, 4153.84619140625000000000, 4382.56396484375000000000, 4493.84619140625000000000, 4408.71777343750000000000, 4046.66650390625000000000, 477.00000000000000000000, 1684.00000000000000000000, 1691.00000000000000000000, 0.00000000000000000000, 0.00000000000000000000, 1474.00000000000000000000, 778.00000000000000000000, 0.00000000000000000000, 0.00000000000000000000, 0.00000000000000000000, 0.00000000000000000000, 0.00000000000000000000, 4.00000000000000000000, 4.00000000000000000000, 4.00000000000000000000, 2.00000000000000000000, 4.00000000000000000000, 4.00000000000000000000, 4.00000000000000000000, 4.00000000000000000000, 4.00000000000000000000, 0.00000000000000000000, 0.00000000000000000000
103.00000000000000000000, 0.00000000000000000000, 4300.00000000000000000000, 3733.84594726562500000000, 4230.76904296875000000000, 4356.92285156250000000000, 4263.58984375000000000000, 4283.07666015625000000000, 4477.43554687500000000000, 4035.89721679687500000000, 3697.43579101562500000000, 4150.25634765625000000000, 4378.46142578125000000000, 4488.71777343750000000000, 4396.92285156250000000000, 4041.53833007812500000000, 421.00000000000000000000, 1684.00000000000000000000, 1692.00000000000000000000, 0.00000000000000000000, 0.00000000000000000000, 1474.00000000000000000000, 785.00000000000000000000, 0.00000000000000000000, 0.00000000000000000000, 0.00000000000000000000, 0.00000000000000000000, 0.00000000000000000000, 4.00000000000000000000, 4.00000000000000000000, 4.00000000000000000000, 2.00000000000000000000, 4.00000000000000000000, 4.00000000000000000000, 4.00000000000000000000, 4.00000000000000000000, 4.00000000000000000000, 0.00000000000000000000, 0.00000000000000000000
104.00000000000000000000, 0.00000000000000000000, 4294.35888671875000000000, 3732.82031250000000000000, 4222.56396484375000000000, 4352.82031250000000000000, 4265.12792968750000000000, 4290.76904296875000000000, 4472.82031250000000000000, 4035.38452148437500000000, 3698.46142578125000000000, 4149.74365234375000000000, 4378.97412109375000000000, 4478.97412109375000000000, 4395.89746093750000000000, 4037.43579101562500000000, 467.00000000000000000000, 1684.00000000000000000000, 1690.00000000000000000000, 0.00000000000000000000, 0.00000000000000000000, 1474.00000000000000000000, 793.00000000000000000000, 0.00000000000000000000, 0.00000000000000000000, 0.00000000000000000000, 0.00000000000000000000, 0.00000000000000000000, 4.00000000000000000000, 4.00000000000000000000, 4.00000000000000000000, 2.00000000000000000000, 4.00000000000000000000, 4.00000000000000000000, 4.00000000000000000000, 4.00000000000000000000, 4.00000000000000000000, 0.00000000000000000000, 0.00000000000000000000
105.00000000000000000000, 0.00000000000000000000, 4290.25634765625000000000, 3728.71777343750000000000, 4213.84619140625000000000, 4350.25634765625000000000, 4264.10253906250000000000, 4288.71777343750000000000, 4472.82031250000000000000, 4049.23071289062500000000, 3699.48706054687500000000, 4150.25634765625000000000, 4375.38427734375000000000, 4472.82031250000000000000, 4397.94873046875000000000, 4035.89721679687500000000, 458.00000000000000000000, 1683.00000000000000000000, 1692.00000000000000000000, 0.00000000000000000000, 0.00000000000000000000, 1474.00000000000000000000, 801.00000000000000000000, 0.00000000000000000000, 0.00000000000000000000, 0.00000000000000000000, 0.00000000000000000000, 0.00000000000000000000, 4.00000000000000000000, 4.00000000000000000000, 4.00000000000000000000, 2.00000000000000000000, 4.00000000000000000000, 4.00000000000000000000, 4.00000000000000000000, 4.00000000000000000000, 4.00000000000000000000, 0.00000000000000000000, 0.00000000000000000000
106.00000000000000000000, 0.00000000000000000000, 4287.69238281250000000000, 3724.61523437500000000000, 4212.30761718750000000000, 4348.71777343750000000000, 4259.48730468750000000000, 4280.00000000000000000000, 4473.84619140625000000000, 4045.64086914062500000000, 3697.94873046875000000000, 4150.25634765625000000000, 4370.76904296875000000000, 4470.25634765625000000000, 4395.38427734375000000000, 4036.41015625000000000000, 477.00000000000000000000, 1684.00000000000000000000, 1691.00000000000000000000, 0.00000000000000000000, 0.00000000000000000000, 1474.00000000000000000000, 809.00000000000000000000, 0.00000000000000000000, 0.00000000000000000000, 0.00000000000000000000, 0.00000000000000000000, 0.00000000000000000000, 4.00000000000000000000, 4.00000000000000000000, 4.00000000000000000000, 2.00000000000000000000, 4.00000000000000000000, 4.00000000000000000000, 4.00000000000000000000, 4.00000000000000000000, 4.00000000000000000000, 0.00000000000000000000, 0.00000000000000000000
107.00000000000000000000, 0.00000000000000000000, 4291.79492187500000000000, 3730.25634765625000000000, 4215.38427734375000000000, 4349.74365234375000000000, 4257.94873046875000000000, 4280.00000000000000000000, 4473.33300781250000000000, 4042.05126953125000000000, 3698.97436523437500000000, 4149.74365234375000000000, 4374.87158203125000000000, 4473.33300781250000000000, 4394.87158203125000000000, 4038.46142578125000000000, 421.00000000000000000000, 1683.00000000000000000000, 1690.00000000000000000000, 0.00000000000000000000, 0.00000000000000000000, 1474.00000000000000000000, 817.00000000000000000000, 0.00000000000000000000, 0.00000000000000000000, 0.00000000000000000000, 0.00000000000000000000, 0.00000000000000000000, 4.00000000000000000000, 4.00000000000000000000, 4.00000000000000000000, 2.00000000000000000000, 4.00000000000000000000, 4.00000000000000000000, 4.00000000000000000000, 4.00000000000000000000, 4.00000000000000000000, 0.00000000000000000000, 0.00000000000000000000
108.00000000000000000000, 0.00000000000000000000, 4297.94873046875000000000, 3736.92309570312500000000, 4215.89746093750000000000, 4351.28173828125000000000, 4261.53857421875000000000, 4284.10253906250000000000, 4472.82031250000000000000, 4053.33325195312500000000, 3699.48706054687500000000, 4151.79492187500000000000, 4382.05126953125000000000, 4476.41015625000000000000, 4398.46142578125000000000, 4039.48706054687500000000, 467.00000000000000000000, 1683.00000000000000000000, 1690.00000000000000000000, 0.00000000000000000000, 0.00000000000000000000, 1474.00000000000000000000, 825.00000000000000000000, 0.00000000000000000000, 0.00000000000000000000, 0.00000000000000000000, 0.00000000000000000000, 0.00000000000000000000, 4.00000000000000000000, 4.00000000000000000000, 4.00000000000000000000, 2.00000000000000000000, 4.00000000000000000000, 4.00000000000000000000, 4.00000000000000000000, 4.00000000000000000000, 4.00000000000000000000, 0.00000000000000000000, 0.00000000000000000000
109.00000000000000000000, 0.00000000000000000000, 4294.87158203125000000000, 3735.38452148437500000000, 4217.43603515625000000000, 4348.71777343750000000000, 4258.46142578125000000000, 4283.07666015625000000000, 4482.56396484375000000000, 4061.02563476562500000000, 3699.48706054687500000000, 4152.30761718750000000000, 4380.51269531250000000000, 4475.38427734375000000000, 4398.97412109375000000000, 4039.48706054687500000000, 458.00000000000000000000, 1684.00000000000000000000, 1689.00000000000000000000, 0.00000000000000000000, 0.00000000000000000000, 1474.00000000000000000000, 833.00000000000000000000, 0.00000000000000000000, 0.00000000000000000000, 0.00000000000000000000, 0.00000000000000000000, 0.00000000000000000000, 4.00000000000000000000, 4.00000000000000000000, 4.00000000000000000000, 2.00000000000000000000, 4.00000000000000000000, 4.00000000000000000000, 4.00000000000000000000, 4.00000000000000000000, 4.00000000000000000000, 0.00000000000000000000, 0.00000000000000000000
110.00000000000000000000, 0.00000000000000000000, 4293.84619140625000000000, 3733.84594726562500000000, 4225.64111328125000000000, 4349.74365234375000000000, 4251.28173828125000000000, 4282.56396484375000000000, 4487.17919921875000000000, 4063.58959960937500000000, 3699.48706054687500000000, 4152.30761718750000000000, 4379.48730468750000000000, 4480.00000000000000000000, 4396.92285156250000000000, 4043.58959960937500000000, 477.00000000000000000000, 1682.00000000000000000000, 1690.00000000000000000000, 0.00000000000000000000, 0.00000000000000000000, 1474.00000000000000000000, 840.00000000000000000000, 0.00000000000000000000, 0.00000000000000000000, 0.00000000000000000000, 0.00000000000000000000, 0.00000000000000000000, 4.00000000000000000000, 4.00000000000000000000, 4.00000000000000000000, 2.00000000000000000000, 4.00000000000000000000, 4.00000000000000000000, 4.00000000000000000000, 4.00000000000000000000, 4.00000000000000000000, 0.00000000000000000000, 0.00000000000000000000
111.00000000000000000000, 0.00000000000000000000, 4301.53857421875000000000, 3736.41015625000000000000, 4232.82031250000000000000, 4351.28173828125000000000, 4251.79492187500000000000, 4280.00000000000000000000, 4477.43554687500000000000, 4065.12817382812500000000, 3701.02563476562500000000, 4148.71777343750000000000, 4381.53857421875000000000, 4489.23046875000000000000, 4397.94873046875000000000, 4045.64086914062500000000, 421.00000000000000000000, 1683.00000000000000000000, 1690.00000000000000000000, 0.00000000000000000000, 0.00000000000000000000, 1474.00000000000000000000, 848.00000000000000000000, 0.00000000000000000000, 0.00000000000000000000, 0.00000000000000000000, 0.00000000000000000000, 0.00000000000000000000, 4.00000000000000000000, 4.00000000000000000000, 4.00000000000000000000, 2.00000000000000000000, 4.00000000000000000000, 4.00000000000000000000, 4.00000000000000000000, 4.00000000000000000000, 4.00000000000000000000, 0.00000000000000000000, 0.00000000000000000000
112.00000000000000000000, 0.00000000000000000000, 4302.56396484375000000000, 3741.02563476562500000000, 4233.33300781250000000000, 4350.76904296875000000000, 4258.97412109375000000000, 4280.51269531250000000000, 4480.00000000000000000000, 4062.56396484375000000000, 3700.51269531250000000000, 4145.64111328125000000000, 4381.53857421875000000000, 4492.30761718750000000000, 4406.66650390625000000000, 4044.10253906250000000000, 467.00000000000000000000, 1682.00000000000000000000, 1691.00000000000000000000, 0.00000000000000000000, 0.00000000000000000000, 1474.00000000000000000000, 856.00000000000000000000, 0.00000000000000000000, 0.00000000000000000000, 0.00000000000000000000, 0.00000000000000000000, 0.00000000000000000000, 4.00000000000000000000, 4.00000000000000000000, 4.00000000000000000000, 2.00000000000000000000, 4.00000000000000000000, 4.00000000000000000000, 4.00000000000000000000, 4.00000000000000000000, 4.00000000000000000000, 0.00000000000000000000, 0.00000000000000000000
113.00000000000000000000, 0.00000000000000000000, 4297.43603515625000000000, 3743.58959960937500000000, 4233.84619140625000000000, 4355.38427734375000000000, 4264.61523437500000000000, 4290.25634765625000000000, 4493.84619140625000000000, 4058.46142578125000000000, 3697.94873046875000000000, 4148.71777343750000000000, 4383.58984375000000000000, 4491.28173828125000000000, 4415.38427734375000000000, 4045.64086914062500000000, 458.00000000000000000000, 1682.00000000000000000000, 1690.00000000000000000000, 0.00000000000000000000, 0.00000000000000000000, 1474.00000000000000000000, 864.00000000000000000000, 0.00000000000000000000, 0.00000000000000000000, 0.00000000000000000000, 0.00000000000000000000, 0.00000000000000000000, 4.00000000000000000000, 4.00000000000000000000, 4.00000000000000000000, 2.00000000000000000000, 4.00000000000000000000, 4.00000000000000000000, 4.00000000000000000000, 4.00000000000000000000, 4.00000000000000000000, 0.00000000000000000000, 0.00000000000000000000
114.00000000000000000000, 0.00000000000000000000, 4294.35888671875000000000, 3738.97436523437500000000, 4233.33300781250000000000, 4354.35888671875000000000, 4265.64111328125000000000, 4290.76904296875000000000, 4494.35888671875000000000, 4058.97436523437500000000, 3697.94873046875000000000, 4147.69238281250000000000, 4382.05126953125000000000, 4493.84619140625000000000, 4409.74365234375000000000, 4046.15380859375000000000, 477.00000000000000000000, 1681.00000000000000000000, 1692.00000000000000000000, 0.00000000000000000000, 0.00000000000000000000, 1474.00000000000000000000, 872.00000000000000000000, 0.00000000000000000000, 0.00000000000000000000, 0.00000000000000000000, 0.00000000000000000000, 0.00000000000000000000, 4.00000000000000000000, 4.00000000000000000000, 4.00000000000000000000, 2.00000000000000000000, 4.00000000000000000000, 4.00000000000000000000, 4.00000000000000000000, 4.00000000000000000000, 4.00000000000000000000, 0.00000000000000000000, 0.00000000000000000000
115.00000000000000000000, 0.00000000000000000000, 4294.35888671875000000000, 3733.84594726562500000000, 4226.66650390625000000000, 4342.56396484375000000000, 4261.53857421875000000000, 4282.56396484375000000000, 4488.71777343750000000000, 4061.02563476562500000000, 3700.00000000000000000000, 4141.02539062500000000000, 4373.84619140625000000000, 4489.74365234375000000000, 4397.43554687500000000000, 4044.10253906250000000000, 421.00000000000000000000, 1683.00000000000000000000, 1691.00000000000000000000, 0.00000000000000000000, 0.00000000000000000000, 1474.00000000000000000000, 879.00000000000000000000, 0.00000000000000000000, 0.00000000000000000000, 0.00000000000000000000, 0.00000000000000000000, 0.00000000000000000000, 4.00000000000000000000, 4.00000000000000000000, 4.00000000000000000000, 2.00000000000000000000, 4.00000000000000000000, 4.00000000000000000000, 4.00000000000000000000, 4.00000000000000000000, 4.00000000000000000000, 0.00000000000000000000, 0.00000000000000000000
116.00000000000000000000, 0.00000000000000000000, 4292.82031250000000000000, 3734.35888671875000000000, 4224.10253906250000000000, 4336.41015625000000000000, 4258.97412109375000000000, 4285.64111328125000000000, 4488.20507812500000000000, 4054.87158203125000000000, 3700.00000000000000000000, 4138.46142578125000000000, 4372.82031250000000000000, 4481.02539062500000000000, 4395.38427734375000000000, 4041.53833007812500000000, 467.00000000000000000000, 1681.00000000000000000000, 1692.00000000000000000000, 0.00000000000000000000, 0.00000000000000000000, 1474.00000000000000000000, 887.00000000000000000000, 0.00000000000000000000, 0.00000000000000000000, 0.00000000000000000000, 0.00000000000000000000, 0.00000000000000000000, 4.00000000000000000000, 4.00000000000000000000, 4.00000000000000000000, 2.00000000000000000000, 4.00000000000000000000, 4.00000000000000000000, 4.00000000000000000000, 4.00000000000000000000, 4.00000000000000000000, 0.00000000000000000000, 0.00000000000000000000
117.00000000000000000000, 0.00000000000000000000, 4290.25634765625000000000, 3733.33325195312500000000, 4227.69238281250000000000, 4336.41015625000000000000, 4262.56396484375000000000, 4294.35888671875000000000, 4486.15380859375000000000, 4047.69213867187500000000, 3696.92309570312500000000, 4143.58984375000000000000, 4378.97412109375000000000, 4476.92285156250000000000, 4397.43554687500000000000, 4038.46142578125000000000, 458.00000000000000000000, 1682.00000000000000000000, 1694.00000000000000000000, 0.00000000000000000000, 0.00000000000000000000, 1474.00000000000000000000, 895.00000000000000000000, 0.00000000000000000000, 0.00000000000000000000, 0.00000000000000000000, 0.00000000000000000000, 0.00000000000000000000, 4.00000000000000000000, 4.00000000000000000000, 4.00000000000000000000, 2.00000000000000000000, 4.00000000000000000000, 4.00000000000000000000, 4.00000000000000000000, 4.00000000000000000000, 4.00000000000000000000, 0.00000000000000000000, 0.00000000000000000000
118.00000000000000000000, 0.00000000000000000000, 4291.28173828125000000000, 3727.17944335937500000000, 4228.71777343750000000000, 4333.84619140625000000000, 4262.05126953125000000000, 4295.89746093750000000000, 4488.20507812500000000000, 4052.82031250000000000000, 3700.51269531250000000000, 4149.74365234375000000000, 4380.51269531250000000000, 4483.58984375000000000000, 4393.84619140625000000000, 4037.94873046875000000000, 477.00000000000000000000, 1681.00000000000000000000, 1693.00000000000000000000, 0.00000000000000000000, 0.00000000000000000000, 1474.00000000000000000000, 903.00000000000000000000, 0.00000000000000000000, 0.00000000000000000000, 0.00000000000000000000, 0.00000000000000000000, 0.00000000000000000000, 4.00000000000000000000, 4.00000000000000000000, 4.00000000000000000000, 2.00000000000000000000, 4.00000000000000000000, 4.00000000000000000000, 4.00000000000000000000, 4.00000000000000000000, 4.00000000000000000000, 0.00000000000000000000, 0.00000000000000000000
119.00000000000000000000, 0.00000000000000000000, 4294.87158203125000000000, 3731.28198242187500000000, 4230.25634765625000000000, 4336.41015625000000000000, 4262.05126953125000000000, 4294.87158203125000000000, 4493.84619140625000000000, 4061.02563476562500000000, 3706.15380859375000000000, 4155.38427734375000000000, 4378.97412109375000000000, 4490.25634765625000000000, 4395.89746093750000000000, 4044.10253906250000000000, 421.00000000000000000000, 1681.00000000000000000000, 1693.00000000000000000000, 0.00000000000000000000, 0.00000000000000000000, 1474.00000000000000000000, 911.00000000000000000000, 0.00000000000000000000, 0.00000000000000000000, 0.00000000000000000000, 0.00000000000000000000, 0.00000000000000000000, 4.00000000000000000000, 4.00000000000000000000, 4.00000000000000000000, 2.00000000000000000000, 4.00000000000000000000, 4.00000000000000000000, 4.00000000000000000000, 4.00000000000000000000, 4.00000000000000000000, 0.00000000000000000000, 0.00000000000000000000
120.00000000000000000000, 0.00000000000000000000, 4296.92285156250000000000, 3738.97436523437500000000, 4232.82031250000000000000, 4343.58984375000000000000, 4266.15380859375000000000, 4293.84619140625000000000, 4490.76904296875000000000, 4062.05126953125000000000, 3703.58959960937500000000, 4152.82031250000000000000, 4374.87158203125000000000, 4483.58984375000000000000, 4397.43554687500000000000, 4045.12817382812500000000, 467.00000000000000000000, 1681.00000000000000000000, 1692.00000000000000000000, 0.00000000000000000000, 0.00000000000000000000, 1474.00000000000000000000, 919.00000000000000000000, 0.00000000000000000000, 0.00000000000000000000, 0.00000000000000000000, 0.00000000000000000000, 0.00000000000000000000, 4.00000000000000000000, 4.00000000000000000000, 4.00000000000000000000, 2.00000000000000000000, 4.00000000000000000000, 4.00000000000000000000, 4.00000000000000000000, 4.00000000000000000000, 4.00000000000000000000, 0.00000000000000000000, 0.00000000000000000000
121.00000000000000000000, 0.00000000000000000000, 4292.82031250000000000000, 3736.41015625000000000000, 4231.28173828125000000000, 4344.10253906250000000000, 4264.10253906250000000000, 4289.74365234375000000000, 4489.23046875000000000000, 4065.12817382812500000000, 3697.94873046875000000000, 4139.48730468750000000000, 4366.66650390625000000000, 4474.35888671875000000000, 4385.12792968750000000000, 4036.92309570312500000000, 458.00000000000000000000, 1681.00000000000000000000, 1692.00000000000000000000, 0.00000000000000000000, 0.00000000000000000000, 1474.00000000000000000000, 926.00000000000000000000, 0.00000000000000000000, 0.00000000000000000000, 0.00000000000000000000, 0.00000000000000000000, 0.00000000000000000000, 4.00000000000000000000, 4.00000000000000000000, 4.00000000000000000000, 2.00000000000000000000, 4.00000000000000000000, 4.00000000000000000000, 4.00000000000000000000, 4.00000000000000000000, 4.00000000000000000000, 0.00000000000000000000, 0.00000000000000000000
122.00000000000000000000, 0.00000000000000000000, 4289.23046875000000000000, 3731.79467773437500000000, 4231.28173828125000000000, 4344.10253906250000000000, 4263.58984375000000000000, 4290.25634765625000000000, 4491.28173828125000000000, 4068.71777343750000000000, 3696.92309570312500000000, 4131.28173828125000000000, 4363.58984375000000000000, 4475.89746093750000000000, 4375.38427734375000000000, 4033.84594726562500000000, 477.00000000000000000000, 1681.00000000000000000000, 1693.00000000000000000000, 0.00000000000000000000, 0.00000000000000000000, 1474.00000000000000000000, 934.00000000000000000000, 0.00000000000000000000, 0.00000000000000000000, 0.00000000000000000000, 0.00000000000000000000, 0.00000000000000000000, 4.00000000000000000000, 4.00000000000000000000, 4.00000000000000000000, 2.00000000000000000000, 4.00000000000000000000, 4.00000000000000000000, 4.00000000000000000000, 4.00000000000000000000, 4.00000000000000000000, 0.00000000000000000000, 0.00000000000000000000
123.00000000000000000000, 0.00000000000000000000, 4284.61523437500000000000, 3729.74340820312500000000, 4231.79492187500000000000, 4343.07666015625000000000, 4262.56396484375000000000, 4286.66650390625000000000, 4486.15380859375000000000, 4061.53833007812500000000, 3697.94873046875000000000, 4131.28173828125000000000, 4367.69238281250000000000, 4475.89746093750000000000, 4387.17919921875000000000, 4037.94873046875000000000, 421.00000000000000000000, 1680.00000000000000000000, 1693.00000000000000000000, 0.00000000000000000000, 0.00000000000000000000, 1474.00000000000000000000, 942.00000000000000000000, 0.00000000000000000000, 0.00000000000000000000, 0.00000000000000000000, 0.00000000000000000000, 0.00000000000000000000, 4.00000000000000000000, 4.00000000000000000000, 4.00000000000000000000, 2.00000000000000000000, 4.00000000000000000000, 4.00000000000000000000, 4.00000000000000000000, 4.00000000000000000000, 4.00000000000000000000, 0.00000000000000000000, 0.00000000000000000000
124.00000000000000000000, 0.00000000000000000000, 4280.00000000000000000000, 3724.61523437500000000000, 4228.20507812500000000000, 4340.00000000000000000000, 4250.76904296875000000000, 4280.00000000000000000000, 4482.56396484375000000000, 4056.92309570312500000000, 3696.92309570312500000000, 4138.97412109375000000000, 4374.87158203125000000000, 4476.41015625000000000000, 4404.10253906250000000000, 4044.61523437500000000000, 467.00000000000000000000, 1681.00000000000000000000, 1693.00000000000000000000, 0.00000000000000000000, 0.00000000000000000000, 1474.00000000000000000000, 950.00000000000000000000, 0.00000000000000000000, 0.00000000000000000000, 0.00000000000000000000, 0.00000000000000000000, 0.00000000000000000000, 4.00000000000000000000, 4.00000000000000000000, 4.00000000000000000000, 2.00000000000000000000, 4.00000000000000000000, 4.00000000000000000000, 4.00000000000000000000, 4.00000000000000000000, 4.00000000000000000000, 0.00000000000000000000, 0.00000000000000000000
125.00000000000000000000, 0.00000000000000000000, 4283.07666015625000000000, 3719.48706054687500000000, 4227.69238281250000000000, 4340.00000000000000000000, 4243.58984375000000000000, 4283.07666015625000000000, 4491.28173828125000000000, 4068.71777343750000000000, 3700.00000000000000000000, 4148.71777343750000000000, 4387.17919921875000000000, 4487.17919921875000000000, 4410.76904296875000000000, 4049.23071289062500000000, 458.00000000000000000000, 1680.00000000000000000000, 1692.00000000000000000000, 0.00000000000000000000, 0.00000000000000000000, 1474.00000000000000000000, 957.00000000000000000000, 0.00000000000000000000, 0.00000000000000000000, 0.00000000000000000000, 0.00000000000000000000, 0.00000000000000000000, 4.00000000000000000000, 4.00000000000000000000, 4.00000000000000000000, 2.00000000000000000000, 4.00000000000000000000, 4.00000000000000000000, 4.00000000000000000000, 4.00000000000000000000, 4.00000000000000000000, 0.00000000000000000000, 0.00000000000000000000
126.00000000000000000000, 0.00000000000000000000, 4289.23046875000000000000, 3723.07690429687500000000, 4231.28173828125000000000, 4338.46142578125000000000, 4252.30761718750000000000, 4286.15380859375000000000, 4496.92285156250000000000, 4082.56396484375000000000, 3705.12817382812500000000, 4156.92285156250000000000, 4398.46142578125000000000, 4495.38427734375000000000, 4420.00000000000000000000, 4052.30761718750000000000, 477.00000000000000000000, 1682.00000000000000000000, 1692.00000000000000000000, 0.00000000000000000000, 0.00000000000000000000, 1474.00000000000000000000, 965.00000000000000000000, 0.00000000000000000000, 0.00000000000000000000, 0.00000000000000000000, 0.00000000000000000000, 0.00000000000000000000, 4.00000000000000000000, 4.00000000000000000000, 4.00000000000000000000, 2.00000000000000000000, 4.00000000000000000000, 4.00000000000000000000, 4.00000000000000000000, 4.00000000000000000000, 4.00000000000000000000, 0.00000000000000000000, 0.00000000000000000000
127.00000000000000000000, 0.00000000000000000000, 4291.79492187500000000000, 3726.15380859375000000000, 4231.28173828125000000000, 4334.35888671875000000000, 4256.41015625000000000000, 4282.05126953125000000000, 4490.76904296875000000000, 4078.97436523437500000000, 3707.17944335937500000000, 4165.64111328125000000000, 4402.05126953125000000000, 4492.82031250000000000000, 4430.25634765625000000000, 4053.84594726562500000000, 421.00000000000000000000, 1679.00000000000000000000, 1691.00000000000000000000, 0.00000000000000000000, 0.00000000000000000000, 1474.00000000000000000000, 973.00000000000000000000, 0.00000000000000000000, 0.00000000000000000000, 0.00000000000000000000, 0.00000000000000000000, 0.00000000000000000000, 4.00000000000000000000, 4.00000000000000000000, 4.00000000000000000000, 2.00000000000000000000, 4.00000000000000000000, 4.00000000000000000000, 4.00000000000000000000, 4.00000000000000000000, 4.00000000000000000000, 0.00000000000000000000, 0.00000000000000000000
128.00000000000000000000, 0.00000000000000000000, 4293.84619140625000000000, 3724.10253906250000000000, 4230.25634765625000000000, 4333.33300781250000000000, 4250.76904296875000000000, 4278.46142578125000000000, 4487.17919921875000000000, 4067.17944335937500000000, 3706.66650390625000000000, 4170.76904296875000000000, 4400.51269531250000000000, 4492.30761718750000000000, 4425.64111328125000000000, 4054.87158203125000000000, 467.00000000000000000000, 1681.00000000000000000000, 1691.00000000000000000000, 0.00000000000000000000, 0.00000000000000000000, 1474.00000000000000000000, 981.00000000000000000000, 0.00000000000000000000, 0.00000000000000000000, 0.00000000000000000000, 0.00000000000000000000, 0.00000000000000000000, 4.00000000000000000000, 4.00000000000000000000, 4.00000000000000000000, 2.00000000000000000000, 4.00000000000000000000, 4.00000000000000000000, 4.00000000000000000000, 4.00000000000000000000, 4.00000000000000000000, 0.00000000000000000000, 0.00000000000000000000
0.00000000000000000000, 0.00000000000000000000, 4295.38427734375000000000, 3728.20507812500000000000, 4231.28173828125000000000, 4336.92285156250000000000, 4252.30761718750000000000, 4280.51269531250000000000, 4491.79492187500000000000, 4067.17944335937500000000, 3707.17944335937500000000, 4168.71777343750000000000, 4400.00000000000000000000, 4494.87158203125000000000, 4414.87158203125000000000, 4056.41015625000000000000, 468.00000000000000000000, 1681.00000000000000000000, 1690.00000000000000000000, 0.00000000000000000000, 0.00000000000000000000, 1474.00000000000000000000, 989.00000000000000000000, 4.00000000000000000000, 0.00000000000000000000, 0.00000000000000000000, 0.00000000000000000000, 0.00000000000000000000, 4.00000000000000000000, 4.00000000000000000000, 4.00000000000000000000, 2.00000000000000000000, 4.00000000000000000000, 4.00000000000000000000, 4.00000000000000000000, 4.00000000000000000000, 4.00000000000000000000, 0.00000000000000000000, 0.00000000000000000000
1.00000000000000000000, 0.00000000000000000000, 4294.87158203125000000000, 3737.43579101562500000000, 4232.82031250000000000000, 4340.51269531250000000000, 4259.48730468750000000000, 4284.10253906250000000000, 4494.35888671875000000000, 4071.79467773437500000000, 3706.66650390625000000000, 4166.66650390625000000000, 4400.00000000000000000000, 4493.84619140625000000000, 4414.87158203125000000000, 4053.84594726562500000000, 454.00000000000000000000, 1681.00000000000000000000, 1692.00000000000000000000, 0.00000000000000000000, 0.00000000000000000000, 1474.00000000000000000000, 997.00000000000000000000, 4.00000000000000000000, 4.00000000000000000000, 0.00000000000000000000, 0.00000000000000000000, 0.00000000000000000000, 4.00000000000000000000, 4.00000000000000000000, 4.00000000000000000000, 2.00000000000000000000, 4.00000000000000000000, 4.00000000000000000000, 4.00000000000000000000, 4.00000000000000000000, 4.00000000000000000000, 0.00000000000000000000, 0.00000000000000000000
2.00000000000000000000, 0.00000000000000000000, 4295.89746093750000000000, 3741.53833007812500000000, 4232.82031250000000000000, 4341.02539062500000000000, 4259.48730468750000000000, 4283.58984375000000000000, 4491.79492187500000000000, 4065.12817382812500000000, 3701.53833007812500000000, 4169.74365234375000000000, 4398.97412109375000000000, 4490.76904296875000000000, 4416.92285156250000000000, 4049.23071289062500000000, 493.00000000000000000000, 1682.00000000000000000000, 1691.00000000000000000000, 0.00000000000000000000, 0.00000000000000000000, 1475.00000000000000000000, 5.00000000000000000000, 4.00000000000000000000, 4.00000000000000000000, 4.00000000000000000000, 0.00000000000000000000, 0.00000000000000000000, 4.00000000000000000000, 4.00000000000000000000, 4.00000000000000000000, 2.00000000000000000000, 4.00000000000000000000, 4.00000000000000000000, 4.00000000000000000000, 4.00000000000000000000, 4.00000000000000000000, 4.00000000000000000000, 0.00000000000000000000
3.00000000000000000000, 0.00000000000000000000, 4296.92285156250000000000, 3737.43579101562500000000, 4233.33300781250000000000, 4340.51269531250000000000, 4253.33300781250000000000, 4281.02539062500000000000, 4490.25634765625000000000, 4058.97436523437500000000, 3697.43579101562500000000, 4164.61523437500000000000, 4397.94873046875000000000, 4490.25634765625000000000, 4412.30761718750000000000, 4051.28198242187500000000, 507.00000000000000000000, 1682.00000000000000000000, 1692.00000000000000000000, 0.00000000000000000000, 0.00000000000000000000, 1475.00000000000000000000, 12.00000000000000000000, 4.00000000000000000000, 4.00000000000000000000, 4.00000000000000000000, 4.00000000000000000000, 0.00000000000000000000, 4.00000000000000000000, 4.00000000000000000000, 4.00000000000000000000, 2.00000000000000000000, 4.00000000000000000000, 4.00000000000000000000, 4.00000000000000000000, 4.00000000000000000000, 4.00000000000000000000, 4.00000000000000000000, 4.00000000000000000000
4.00000000000000000000, 0.00000000000000000000, 4290.76904296875000000000, 3731.79467773437500000000, 4232.30761718750000000000, 4341.53857421875000000000, 4256.92285156250000000000, 4279.48730468750000000000, 4492.30761718750000000000, 4065.64086914062500000000, 3700.00000000000000000000, 4155.89746093750000000000, 4395.38427734375000000000, 4490.25634765625000000000, 4411.28173828125000000000, 4056.41015625000000000000, 484.00000000000000000000, 1682.00000000000000000000, 1691.00000000000000000000, 0.00000000000000000000, 0.00000000000000000000, 1475.00000000000000000000, 20.00000000000000000000, 4.00000000000000000000, 4.00000000000000000000, 4.00000000000000000000, 4.00000000000000000000, 4.00000000000000000000, 4.00000000000000000000, 4.00000000000000000000, 4.00000000000000000000, 2.00000000000000000000, 4.00000000000000000000, 4.00000000000000000000, 4.00000000000000000000, 4.00000000000000000000, 4.00000000000000000000, 4.00000000000000000000, 4.00000000000000000000
5.00000000000000000000, 0.00000000000000000000, 4284.10253906250000000000, 3726.66650390625000000000, 4224.61523437500000000000, 4338.97412109375000000000, 4262.56396484375000000000, 4281.02539062500000000000, 4490.76904296875000000000, 4071.28198242187500000000, 3701.02563476562500000000, 4152.82031250000000000000, 4391.28173828125000000000, 4489.74365234375000000000, 4412.82031250000000000000, 4054.35888671875000000000, 516.00000000000000000000, 1682.00000000000000000000, 1692.00000000000000000000, 0.00000000000000000000, 0.00000000000000000000, 1475.00000000000000000000, 28.00000000000000000000, 4.00000000000000000000, 4.00000000000000000000, 4.00000000000000000000, 4.00000000000000000000, 4.00000000000000000000, 4.00000000000000000000, 4.00000000000000000000, 4.00000000000000000000, 2.00000000000000000000, 4.00000000000000000000, 4.00000000000000000000, 4.00000000000000000000, 4.00000000000000000000, 4.00000000000000000000, 4.00000000000000000000, 4.00000000000000000000
6.00000000000000000000, 0.00000000000000000000, 4287.69238281250000000000, 3726.15380859375000000000, 4221.53857421875000000000, 4332.82031250000000000000, 4260.00000000000000000000, 4284.10253906250000000000, 4487.17919921875000000000, 4066.66650390625000000000, 3698.46142578125000000000, 4154.87158203125000000000, 4387.17919921875000000000, 4485.64111328125000000000, 4409.23046875000000000000, 4047.69213867187500000000, 503.00000000000000000000, 1684.00000000000000000000, 1692.00000000000000000000, 0.00000000000000000000, 0.00000000000000000000, 1475.00000000000000000000, 36.00000000000000000000, 4.00000000000000000000, 4.00000000000000000000, 4.00000000000000000000, 4.00000000000000000000, 4.00000000000000000000, 4.00000000000000000000, 4.00000000000000000000, 4.00000000000000000000, 2.00000000000000000000, 4.00000000000000000000, 4.00000000000000000000, 4.00000000000000000000, 4.00000000000000000000, 4.00000000000000000000, 4.00000000000000000000, 4.00000000000000000000
7.00000000000000000000, 0.00000000000000000000, 4296.41015625000000000000, 3732.82031250000000000000, 4230.76904296875000000000, 4336.92285156250000000000, 4260.51269531250000000000, 4291.79492187500000000000, 4494.35888671875000000000, 4070.76904296875000000000, 3702.05126953125000000000, 4161.53857421875000000000, 4392.82031250000000000000, 4487.69238281250000000000, 4411.79492187500000000000, 4052.30761718750000000000, 474.00000000000000000000, 1682.00000000000000000000, 1692.00000000000000000000, 0.00000000000000000000, 0.00000000000000000000, 1475.00000000000000000000, 44.00000000000000000000, 4.00000000000000000000, 4.00000000000000000000, 4.00000000000000000000, 4.00000000000000000000, 4.00000000000000000000, 4.00000000000000000000, 4.00000000000000000000, 4.00000000000000000000, 2.00000000000000000000, 4.00000000000000000000, 4.00000000000000000000, 4.00000000000000000000, 4.00000000000000000000, 4.00000000000000000000, 4.00000000000000000000, 4.00000000000000000000
8.00000000000000000000, 0.00000000000000000000, 4302.56396484375000000000, 3738.97436523437500000000, 4236.41015625000000000000, 4343.58984375000000000000, 4266.66650390625000000000, 4294.87158203125000000000, 4505.64111328125000000000, 4086.66650390625000000000, 3711.28198242187500000000, 4170.25634765625000000000, 4405.64111328125000000000, 4500.00000000000000000000, 4425.12792968750000000000, 4062.56396484375000000000, 223.00000000000000000000, 1683.00000000000000000000, 1692.00000000000000000000, 0.00000000000000000000, 0.00000000000000000000, 1475.00000000000000000000, 51.00000000000000000000, 4.00000000000000000000, 4.00000000000000000000, 4.00000000000000000000, 4.00000000000000000000, 4.00000000000000000000, 4.00000000000000000000, 4.00000000000000000000, 4.00000000000000000000, 2.00000000000000000000, 4.00000000000000000000, 4.00000000000000000000, 4.00000000000000000000, 4.00000000000000000000, 4.00000000000000000000, 4.00000000000000000000, 4.00000000000000000000
9.00000000000000000000, 0.00000000000000000000, 4308.20507812500000000000, 3743.07690429687500000000, 4232.30761718750000000000, 4342.56396484375000000000, 4266.66650390625000000000, 4291.79492187500000000000, 4506.66650390625000000000, 4091.79467773437500000000, 3715.38452148437500000000, 4175.89746093750000000000, 4413.84619140625000000000, 4503.58984375000000000000, 4430.76904296875000000000, 4067.69213867187500000000, 423.00000000000000000000, 1682.00000000000000000000, 1692.00000000000000000000, 0.00000000000000000000, 0.00000000000000000000, 1475.00000000000000000000, 59.00000000000000000000, 4.00000000000000000000, 4.00000000000000000000, 4.00000000000000000000, 4.00000000000000000000, 4.00000000000000000000, 4.00000000000000000000, 4.00000000000000000000, 4.00000000000000000000, 2.00000000000000000000, 4.00000000000000000000, 4.00000000000000000000, 4.00000000000000000000, 4.00000000000000000000, 4.00000000000000000000, 4.00000000000000000000, 4.00000000000000000000
10.00000000000000000000, 0.00000000000000000000, 4309.74365234375000000000, 3748.20507812500000000000, 4233.84619140625000000000, 4341.53857421875000000000, 4265.12792968750000000000, 4290.76904296875000000000, 4502.05126953125000000000, 4083.58959960937500000000, 3711.79467773437500000000, 4174.35888671875000000000, 4412.30761718750000000000, 4494.35888671875000000000, 4426.66650390625000000000, 4065.64086914062500000000, 477.00000000000000000000, 1682.00000000000000000000, 1693.00000000000000000000, 0.00000000000000000000, 0.00000000000000000000, 1475.00000000000000000000, 67.00000000000000000000, 4.00000000000000000000, 4.00000000000000000000, 4.00000000000000000000, 4.00000000000000000000, 4.00000000000000000000, 4.00000000000000000000, 4.00000000000000000000, 4.00000000000000000000, 2.00000000000000000000, 4.00000000000000000000, 4.00000000000000000000, 4.00000000000000000000, 4.00000000000000000000, 4.00000000000000000000, 4.00000000000000000000, 4.00000000000000000000
11.00000000000000000000, 0.00000000000000000000, 4304.10253906250000000000, 3752.30761718750000000000, 4241.53857421875000000000, 4344.61523437500000000000, 4264.61523437500000000000, 4289.74365234375000000000, 4501.02539062500000000000, 4075.38452148437500000000, 3707.69213867187500000000, 4171.28173828125000000000, 4409.23046875000000000000, 4489.74365234375000000000, 4426.15380859375000000000, 4063.58959960937500000000, 421.00000000000000000000, 1681.00000000000000000000, 1693.00000000000000000000, 0.00000000000000000000, 0.00000000000000000000, 1475.00000000000000000000, 74.00000000000000000000, 4.00000000000000000000, 4.00000000000000000000, 4.00000000000000000000, 4.00000000000000000000, 4.00000000000000000000, 4.00000000000000000000, 4.00000000000000000000, 4.00000000000000000000, 2.00000000000000000000, 4.00000000000000000000, 4.00000000000000000000, 4.00000000000000000000, 4.00000000000000000000, 4.00000000000000000000, 4.00000000000000000000, 4.00000000000000000000
12.00000000000000000000, 0.00000000000000000000, 4302.56396484375000000000, 3752.30761718750000000000, 4245.12792968750000000000, 4349.23046875000000000000, 4265.64111328125000000000, 4292.30761718750000000000, 4506.66650390625000000000, 4075.89721679687500000000, 3705.12817382812500000000, 4171.79492187500000000000, 4410.76904296875000000000, 4493.33300781250000000000, 4430.25634765625000000000, 4066.66650390625000000000, 467.00000000000000000000, 1681.00000000000000000000, 1694.00000000000000000000, 0.00000000000000000000, 0.00000000000000000000, 1475.00000000000000000000, 83.00000000000000000000, 4.00000000000000000000, 4.00000000000000000000, 4.00000000000000000000, 4.00000000000000000000, 4.00000000000000000000, 4.00000000000000000000, 4.00000000000000000000, 4.00000000000000000000, 2.00000000000000000000, 4.00000000000000000000, 4.00000000000000000000, 4.00000000000000000000, 4.00000000000000000000, 4.00000000000000000000, 4.00000000000000000000, 4.00000000000000000000
13.00000000000000000000, 0.00000000000000000000, 4304.61523437500000000000, 3753.33325195312500000000, 4246.15380859375000000000, 4352.30761718750000000000, 4274.87158203125000000000, 4296.41015625000000000000, 4505.12792968750000000000, 4086.15380859375000000000, 3707.17944335937500000000, 4173.33300781250000000000, 4412.30761718750000000000, 4494.35888671875000000000, 4430.76904296875000000000, 4068.71777343750000000000, 458.00000000000000000000, 1682.00000000000000000000, 1690.00000000000000000000, 0.00000000000000000000, 0.00000000000000000000, 1475.00000000000000000000, 91.00000000000000000000, 4.00000000000000000000, 4.00000000000000000000, 4.00000000000000000000, 4.00000000000000000000, 4.00000000000000000000, 4.00000000000000000000, 4.00000000000000000000, 4.00000000000000000000, 2.00000000000000000000, 4.00000000000000000000, 4.00000000000000000000, 4.00000000000000000000, 4.00000000000000000000, 4.00000000000000000000, 4.00000000000000000000, 4.00000000000000000000
14.00000000000000000000, 0.00000000000000000000, 4303.07666015625000000000, 3755.89746093750000000000, 4244.10253906250000000000, 4347.69238281250000000000, 4275.38427734375000000000, 4290.25634765625000000000, 4493.84619140625000000000, 4085.64086914062500000000, 3708.20507812500000000000, 4169.23046875000000000000, 4408.20507812500000000000, 4492.30761718750000000000, 4428.71777343750000000000, 4065.12817382812500000000, 477.00000000000000000000, 1681.00000000000000000000, 1689.00000000000000000000, 0.00000000000000000000, 0.00000000000000000000, 1475.00000000000000000000, 98.00000000000000000000, 4.00000000000000000000, 4.00000000000000000000, 4.00000000000000000000, 4.00000000000000000000, 4.00000000000000000000, 4.00000000000000000000, 4.00000000000000000000, 4.00000000000000000000, 2.00000000000000000000, 4.00000000000000000000, 4.00000000000000000000, 4.00000000000000000000, 4.00000000000000000000, 4.00000000000000000000, 4.00000000000000000000, 4.00000000000000000000
15.00000000000000000000, 0.00000000000000000000, 4305.12792968750000000000, 3754.87158203125000000000, 4244.10253906250000000000, 4344.61523437500000000000, 4266.15380859375000000000, 4287.69238281250000000000, 4495.89746093750000000000, 4075.38452148437500000000, 3705.64086914062500000000, 4164.10253906250000000000, 4403.58984375000000000000, 4489.23046875000000000000, 4425.64111328125000000000, 4061.53833007812500000000, 421.00000000000000000000, 1683.00000000000000000000, 1687.00000000000000000000, 0.00000000000000000000, 0.00000000000000000000, 1475.00000000000000000000, 106.00000000000000000000, 4.00000000000000000000, 4.00000000000000000000, 4.00000000000000000000, 4.00000000000000000000, 4.00000000000000000000, 4.00000000000000000000, 4.00000000000000000000, 4.00000000000000000000, 2.00000000000000000000, 4.00000000000000000000, 4.00000000000000000000, 4.00000000000000000000, 4.00000000000000000000, 4.00000000000000000000, 4.00000000000000000000, 4.00000000000000000000
16.00000000000000000000, 0.00000000000000000000, 4308.20507812500000000000, 3752.82031250000000000000, 4247.17919921875000000000, 4348.71777343750000000000, 4269.23046875000000000000, 4294.35888671875000000000, 4507.69238281250000000000, 4080.00000000000000000000, 3704.61523437500000000000, 4163.58984375000000000000, 4403.58984375000000000000, 4487.69238281250000000000, 4424.10253906250000000000, 4060.51269531250000000000, 0.00000000000000000000, 1682.00000000000000000000, 1688.00000000000000000000, 0.00000000000000000000, 0.00000000000000000000, 1475.00000000000000000000, 114.00000000000000000000, 4.00000000000000000000, 4.00000000000000000000, 4.00000000000000000000, 4.00000000000000000000, 4.00000000000000000000, 4.00000000000000000000, 4.00000000000000000000, 4.00000000000000000000, 2.00000000000000000000, 4.00000000000000000000, 4.00000000000000000000, 4.00000000000000000000, 4.00000000000000000000, 4.00000000000000000000, 4.00000000000000000000, 4.00000000000000000000
17.00000000000000000000, 0.00000000000000000000, 4309.23046875000000000000, 3756.92309570312500000000, 4246.66650390625000000000, 4350.76904296875000000000, 4279.48730468750000000000, 4296.41015625000000000000, 4509.23046875000000000000, 4091.79467773437500000000, 3708.71777343750000000000, 4167.69238281250000000000, 4407.17919921875000000000, 4495.89746093750000000000, 4430.25634765625000000000, 4060.51269531250000000000, 0.00000000000000000000, 1682.00000000000000000000, 1691.00000000000000000000, 0.00000000000000000000, 0.00000000000000000000, 1475.00000000000000000000, 122.00000000000000000000, 4.00000000000000000000, 4.00000000000000000000, 4.00000000000000000000, 4.00000000000000000000, 4.00000000000000000000, 4.00000000000000000000, 4.00000000000000000000, 4.00000000000000000000, 2.00000000000000000000, 4.00000000000000000000, 4.00000000000000000000, 4.00000000000000000000, 4.00000000000000000000, 4.00000000000000000000, 4.00000000000000000000, 4.00000000000000000000
18.00000000000000000000, 0.00000000000000000000, 4316.92285156250000000000, 3766.15380859375000000000, 4251.79492187500000000000, 4353.33300781250000000000, 4281.02539062500000000000, 4295.89746093750000000000, 4513.84619140625000000000, 4092.82031250000000000000, 3715.38452148437500000000, 4179.48730468750000000000, 4419.48730468750000000000, 4506.66650390625000000000, 4443.07666015625000000000, 4068.71777343750000000000, 0.00000000000000000000, 1681.00000000000000000000, 1693.00000000000000000000, 0.00000000000000000000, 0.00000000000000000000, 1475.00000000000000000000, 130.00000000000000000000, 4.00000000000000000000, 4.00000000000000000000, 4.00000000000000000000, 4.00000000000000000000, 4.00000000000000000000, 4.00000000000000000000, 4.00000000000000000000, 4.00000000000000000000, 2.00000000000000000000, 4.00000000000000000000, 4.00000000000000000000, 4.00000000000000000000, 4.00000000000000000000, 4.00000000000000000000, 4.00000000000000000000, 4.00000000000000000000
19.00000000000000000000, 0.00000000000000000000, 4322.56396484375000000000, 3772.30761718750000000000, 4261.02539062500000000000, 4358.97412109375000000000, 4280.51269531250000000000, 4298.46142578125000000000, 4520.51269531250000000000, 4092.30761718750000000000, 3717.43579101562500000000, 4188.71777343750000000000, 4430.76904296875000000000, 4509.74365234375000000000, 4450.76904296875000000000, 4075.89721679687500000000, 0.00000000000000000000, 1682.00000000000000000000, 1694.00000000000000000000, 0.00000000000000000000, 0.00000000000000000000, 1475.00000000000000000000, 137.00000000000000000000, 4.00000000000000000000, 4.00000000000000000000, 4.00000000000000000000, 4.00000000000000000000, 4.00000000000000000000, 4.00000000000000000000, 4.00000000000000000000, 4.00000000000000000000, 2.00000000000000000000, 4.00000000000000000000, 4.00000000000000000000, 4.00000000000000000000, 4.00000000000000000000, 4.00000000000000000000, 4.00000000000000000000, 4.00000000000000000000
20.00000000000000000000, 0.00000000000000000000, 4313.84619140625000000000, 3768.20507812500000000000, 4255.89746093750000000000, 4360.00000000000000000000, 4280.51269531250000000000, 4297.43603515625000000000, 4513.33300781250000000000, 4090.76904296875000000000, 3714.87158203125000000000, 4184.10253906250000000000, 4425.12792968750000000000, 4506.66650390625000000000, 4441.02539062500000000000, 4071.28198242187500000000, 0.00000000000000000000, 1681.00000000000000000000, 1695.00000000000000000000, 0.00000000000000000000, 0.00000000000000000000, 1475.00000000000000000000, 145.00000000000000000000, 4.00000000000000000000, 4.00000000000000000000, 4.00000000000000000000, 4.00000000000000000000, 4.00000000000000000000, 4.00000000000000000000, 4.00000000000000000000, 4.00000000000000000000, 2.00000000000000000000, 4.00000000000000000000, 4.00000000000000000000, 4.00000000000000000000, 4.00000000000000000000, 4.00000000000000000000, 4.00000000000000000000, 4.00000000000000000000
21.00000000000000000000, 0.00000000000000000000, 4312.30761718750000000000, 3762.56396484375000000000, 4250.76904296875000000000, 4355.89746093750000000000, 4277.43603515625000000000, 4294.87158203125000000000, 4508.71777343750000000000, 4092.30761718750000000000, 3714.35888671875000000000, 4180.51269531250000000000, 4417.43554687500000000000, 4506.66650390625000000000, 4435.38427734375000000000, 4068.71777343750000000000, 0.00000000000000000000, 1682.00000000000000000000, 1694.00000000000000000000, 0.00000000000000000000, 0.00000000000000000000, 1475.00000000000000000000, 153.00000000000000000000, 4.00000000000000000000, 4.00000000000000000000, 4.00000000000000000000, 4.00000000000000000000, 4.00000000000000000000, 4.00000000000000000000, 4.00000000000000000000, 4.00000000000000000000, 2.00000000000000000000, 4.00000000000000000000, 4.00000000000000000000, 4.00000000000000000000, 4.00000000000000000000, 4.00000000000000000000, 4.00000000000000000000, 4.00000000000000000000
22.00000000000000000000, 0.00000000000000000000, 4321.53857421875000000000, 3762.05126953125000000000, 4257.94873046875000000000, 4355.38427734375000000000, 4280.51269531250000000000, 4296.41015625000000000000, 4513.84619140625000000000, 4101.02539062500000000000, 3717.43579101562500000000, 4186.66650390625000000000, 4426.15380859375000000000, 4508.20507812500000000000, 4448.71777343750000000000, 4073.84594726562500000000, 0.00000000000000000000, 1682.00000000000000000000, 1694.00000000000000000000, 0.00000000000000000000, 0.00000000000000000000, 1475.00000000000000000000, 161.00000000000000000000, 4.00000000000000000000, 4.00000000000000000000, 4.00000000000000000000, 4.00000000000000000000, 4.00000000000000000000, 4.00000000000000000000, 4.00000000000000000000, 4.00000000000000000000, 2.00000000000000000000, 4.00000000000000000000, 4.00000000000000000000, 4.00000000000000000000, 4.00000000000000000000, 4.00000000000000000000, 4.00000000000000000000, 4.00000000000000000000
23.00000000000000000000, 0.00000000000000000000, 4316.41015625000000000000, 3757.43579101562500000000, 4257.43603515625000000000, 4351.28173828125000000000, 4284.61523437500000000000, 4295.89746093750000000000, 4510.25634765625000000000, 4098.97412109375000000000, 3715.89746093750000000000, 4188.71777343750000000000, 4436.92285156250000000000, 4511.28173828125000000000, 4462.56396484375000000000, 4076.92309570312500000000, 0.00000000000000000000, 1683.00000000000000000000, 1694.00000000000000000000, 0.00000000000000000000, 0.00000000000000000000, 1475.00000000000000000000, 169.00000000000000000000, 4.00000000000000000000, 4.00000000000000000000, 4.00000000000000000000, 4.00000000000000000000, 4.00000000000000000000, 4.00000000000000000000, 4.00000000000000000000, 4.00000000000000000000, 2.00000000000000000000, 4.00000000000000000000, 4.00000000000000000000, 4.00000000000000000000, 4.00000000000000000000, 4.00000000000000000000, 4.00000000000000000000, 4.00000000000000000000
24.00000000000000000000, 0.00000000000000000000, 4307.69238281250000000000, 3747.17944335937500000000, 4248.71777343750000000000, 4343.58984375000000000000, 4282.05126953125000000000, 4295.89746093750000000000, 4505.64111328125000000000, 4090.25634765625000000000, 3713.33325195312500000000, 4185.64111328125000000000, 4437.94873046875000000000, 4520.00000000000000000000, 4462.56396484375000000000, 4080.51269531250000000000, 0.00000000000000000000, 1683.00000000000000000000, 1693.00000000000000000000, 0.00000000000000000000, 0.00000000000000000000, 1475.00000000000000000000, 176.00000000000000000000, 4.00000000000000000000, 4.00000000000000000000, 4.00000000000000000000, 4.00000000000000000000, 4.00000000000000000000, 4.00000000000000000000, 4.00000000000000000000, 4.00000000000000000000, 2.00000000000000000000, 4.00000000000000000000, 4.00000000000000000000, 4.00000000000000000000, 4.00000000000000000000, 4.00000000000000000000, 4.00000000000000000000, 4.00000000000000000000
25.00000000000000000000, 0.00000000000000000000, 4310.25634765625000000000, 3745.64086914062500000000, 4249.23046875000000000000, 4345.12792968750000000000, 4277.43603515625000000000, 4294.87158203125000000000, 4509.23046875000000000000, 4091.79467773437500000000, 3715.38452148437500000000, 4182.56396484375000000000, 4433.84619140625000000000, 4521.53857421875000000000, 4454.87158203125000000000, 4082.56396484375000000000, 0.00000000000000000000, 1684.00000000000000000000, 1691.00000000000000000000, 0.00000000000000000000, 0.00000000000000000000, 1475.00000000000000000000, 184.00000000000000000000, 4.00000000000000000000, 4.00000000000000000000, 4.00000000000000000000, 4.00000000000000000000, 4.00000000000000000000, 4.00000000000000000000, 4.00000000000000000000, 4.00000000000000000000, 2.00000000000000000000, 4.00000000000000000000, 4.00000000000000000000, 4.00000000000000000000, 4.00000000000000000000, 4.00000000000000000000, 4.00000000000000000000, 4.00000000000000000000
26.00000000000000000000, 0.00000000000000000000, 4304.61523437500000000000, 3744.61523437500000000000, 4251.79492187500000000000, 4343.58984375000000000000, 4274.87158203125000000000, 4285.12792968750000000000, 4503.58984375000000000000, 4089.74340820312500000000, 3713.84594726562500000000, 4169.74365234375000000000, 4424.10253906250000000000, 4512.30761718750000000000, 4444.61523437500000000000, 4075.38452148437500000000, 0.00000000000000000000, 1683.00000000000000000000, 1690.00000000000000000000, 0.00000000000000000000, 0.00000000000000000000, 1475.00000000000000000000, 192.00000000000000000000, 4.00000000000000000000, 4.00000000000000000000, 4.00000000000000000000, 4.00000000000000000000, 4.00000000000000000000, 4.00000000000000000000, 4.00000000000000000000, 4.00000000000000000000, 2.00000000000000000000, 4.00000000000000000000, 4.00000000000000000000, 4.00000000000000000000, 4.00000000000000000000, 4.00000000000000000000, 4.00000000000000000000, 4.00000000000000000000
27.00000000000000000000, 0.00000000000000000000, 4294.35888671875000000000, 3734.87158203125000000000, 4243.58984375000000000000, 4332.30761718750000000000, 4270.76904296875000000000, 4278.97412109375000000000, 4495.89746093750000000000, 4079.48706054687500000000, 3708.20507812500000000000, 4156.41015625000000000000, 4413.33300781250000000000, 4502.05126953125000000000, 4433.84619140625000000000, 4068.20507812500000000000, 0.00000000000000000000, 1683.00000000000000000000, 1688.00000000000000000000, 0.00000000000000000000, 0.00000000000000000000, 1475.00000000000000000000, 200.00000000000000000000, 4.00000000000000000000, 4.00000000000000000000, 4.00000000000000000000, 4.00000000000000000000, 4.00000000000000000000, 4.00000000000000000000, 4.00000000000000000000, 4.00000000000000000000, 2.00000000000000000000, 4.00000000000000000000, 4.00000000000000000000, 4.00000000000000000000, 4.00000000000000000000, 4.00000000000000000000, 4.00000000000000000000, 4.00000000000000000000
28.00000000000000000000, 0.00000000000000000000, 4293.84619140625000000000, 3727.17944335937500000000, 4233.33300781250000000000, 4322.56396484375000000000, 4264.10253906250000000000, 4280.00000000000000000000, 4496.41015625000000000000, 4071.28198242187500000000, 3707.17944335937500000000, 4148.71777343750000000000, 4404.61523437500000000000, 4495.89746093750000000000, 4425.64111328125000000000, 4066.15380859375000000000, 0.00000000000000000000, 1683.00000000000000000000, 1689.00000000000000000000, 0.00000000000000000000, 0.00000000000000000000, 1475.00000000000000000000, 208.00000000000000000000, 4.00000000000000000000, 4.00000000000000000000, 4.00000000000000000000, 4.00000000000000000000, 4.00000000000000000000, 4.00000000000000000000, 4.00000000000000000000, 4.00000000000000000000, 2.00000000000000000000, 4.00000000000000000000, 4.00000000000000000000, 4.00000000000000000000, 4.00000000000000000000, 4.00000000000000000000, 4.00000000000000000000, 4.00000000000000000000
29.00000000000000000000, 0.00000000000000000000, 4289.23046875000000000000, 3726.15380859375000000000, 4230.25634765625000000000, 4317.94873046875000000000, 4260.51269531250000000000, 4278.97412109375000000000, 4494.35888671875000000000, 4062.56396484375000000000, 3705.64086914062500000000, 4142.05126953125000000000, 4396.41015625000000000000, 4489.74365234375000000000, 4414.87158203125000000000, 4061.53833007812500000000, 0.00000000000000000000, 1683.00000000000000000000, 1689.00000000000000000000, 0.00000000000000000000, 0.00000000000000000000, 1475.00000000000000000000, 216.00000000000000000000, 4.00000000000000000000, 4.00000000000000000000, 4.00000000000000000000, 4.00000000000000000000, 4.00000000000000000000, 4.00000000000000000000, 4.00000000000000000000, 4.00000000000000000000, 2.00000000000000000000, 4.00000000000000000000, 4.00000000000000000000, 4.00000000000000000000, 4.00000000000000000000, 4.00000000000000000000, 4.00000000000000000000, 4.00000000000000000000
30.00000000000000000000, 0.00000000000000000000, 4281.02539062500000000000, 3725.12817382812500000000, 4232.82031250000000000000, 4310.25634765625000000000, 4262.05126953125000000000, 4276.41015625000000000000, 4489.23046875000000000000, 4055.89721679687500000000, 3701.02563476562500000000, 4143.07666015625000000000, 4396.41015625000000000000, 4489.23046875000000000000, 4406.66650390625000000000, 4056.41015625000000000000, 0.00000000000000000000, 1682.00000000000000000000, 1690.00000000000000000000, 0.00000000000000000000, 0.00000000000000000000, 1475.00000000000000000000, 223.00000000000000000000, 4.00000000000000000000, 4.00000000000000000000, 4.00000000000000000000, 4.00000000000000000000, 4.00000000000000000000, 4.00000000000000000000, 4.00000000000000000000, 4.00000000000000000000, 2.00000000000000000000, 4.00000000000000000000, 4.00000000000000000000, 4.00000000000000000000, 4.00000000000000000000, 4.00000000000000000000, 4.00000000000000000000, 4.00000000000000000000
31.00000000000000000000, 0.00000000000000000000, 4286.66650390625000000000, 3726.15380859375000000000, 4234.35888671875000000000, 4307.17919921875000000000, 4265.64111328125000000000, 4278.97412109375000000000, 4491.28173828125000000000, 4064.61523437500000000000, 3701.53833007812500000000, 4151.28173828125000000000, 4401.53857421875000000000, 4498.46142578125000000000, 4414.35888671875000000000, 4061.02563476562500000000, 0.00000000000000000000, 1682.00000000000000000000, 1692.00000000000000000000, 0.00000000000000000000, 0.00000000000000000000, 1475.00000000000000000000, 231.00000000000000000000, 4.00000000000000000000, 4.00000000000000000000, 4.00000000000000000000, 4.00000000000000000000, 4.00000000000000000000, 4.00000000000000000000, 4.00000000000000000000, 4.00000000000000000000, 2.00000000000000000000, 4.00000000000000000000, 4.00000000000000000000, 4.00000000000000000000, 4.00000000000000000000, 4.00000000000000000000, 4.00000000000000000000, 4.00000000000000000000
32.00000000000000000000, 0.00000000000000000000, 4298.46142578125000000000, 3734.35888671875000000000, 4242.05126953125000000000, 4313.84619140625000000000, 4267.17919921875000000000, 4280.51269531250000000000, 4494.87158203125000000000, 4077.43579101562500000000, 3710.25634765625000000000, 4156.41015625000000000000, 4414.35888671875000000000, 4509.23046875000000000000, 4428.20507812500000000000, 4074.35888671875000000000, 0.00000000000000000000, 1683.00000000000000000000, 1691.00000000000000000000, 0.00000000000000000000, 0.00000000000000000000, 1475.00000000000000000000, 239.00000000000000000000, 4.00000000000000000000, 4.00000000000000000000, 4.00000000000000000000, 4.00000000000000000000, 4.00000000000000000000, 4.00000000000000000000, 4.00000000000000000000, 4.00000000000000000000, 2.00000000000000000000, 4.00000000000000000000, 4.00000000000000000000, 4.00000000000000000000, 4.00000000000000000000, 4.00000000000000000000, 4.00000000000000000000, 4.00000000000000000000
33.00000000000000000000, 0.00000000000000000000, 4298.97412109375000000000, 3737.94873046875000000000, 4251.28173828125000000000, 4315.38427734375000000000, 4264.61523437500000000000, 4279.48730468750000000000, 4490.25634765625000000000, 4073.33325195312500000000, 3712.82031250000000000000, 4164.61523437500000000000, 4426.15380859375000000000, 4510.25634765625000000000, 4432.82031250000000000000, 4084.61523437500000000000, 0.00000000000000000000, 1682.00000000000000000000, 1692.00000000000000000000, 0.00000000000000000000, 0.00000000000000000000, 1475.00000000000000000000, 247.00000000000000000000, 4.00000000000000000000, 4.00000000000000000000, 4.00000000000000000000, 4.00000000000000000000, 4.00000000000000000000, 4.00000000000000000000, 4.00000000000000000000, 4.00000000000000000000, 2.00000000000000000000, 4.00000000000000000000, 4.00000000000000000000, 4.00000000000000000000, 4.00000000000000000000, 4.00000000000000000000, 4.00000000000000000000, 4.00000000000000000000
34.00000000000000000000, 0.00000000000000000000, 4293.33300781250000000000, 3733.84594726562500000000, 4243.07666015625000000000, 4310.76904296875000000000, 4269.74365234375000000000, 4282.05126953125000000000, 4488.20507812500000000000, 4060.00000000000000000000, 3708.71777343750000000000, 4170.25634765625000000000, 4423.07666015625000000000, 4507.17919921875000000000, 4429.74365234375000000000, 4082.05126953125000000000, 0.00000000000000000000, 1684.00000000000000000000, 1692.00000000000000000000, 0.00000000000000000000, 0.00000000000000000000, 1475.00000000000000000000, 255.00000000000000000000, 4.00000000000000000000, 4.00000000000000000000, 4.00000000000000000000, 4.00000000000000000000, 4.00000000000000000000, 4.00000000000000000000, 4.00000000000000000000, 4.00000000000000000000, 2.00000000000000000000, 4.00000000000000000000, 4.00000000000000000000, 4.00000000000000000000, 4.00000000000000000000, 4.00000000000000000000, 4.00000000000000000000, 4.00000000000000000000
35.00000000000000000000, 0.00000000000000000000, 4291.79492187500000000000, 3730.25634765625000000000, 4231.28173828125000000000, 4309.74365234375000000000, 4277.94873046875000000000, 4282.56396484375000000000, 4490.25634765625000000000, 4055.89721679687500000000, 3705.64086914062500000000, 4158.46142578125000000000, 4411.28173828125000000000, 4504.10253906250000000000, 4426.66650390625000000000, 4077.94873046875000000000, 0.00000000000000000000, 1683.00000000000000000000, 1692.00000000000000000000, 0.00000000000000000000, 0.00000000000000000000, 1475.00000000000000000000, 262.00000000000000000000, 4.00000000000000000000, 4.00000000000000000000, 4.00000000000000000000, 4.00000000000000000000, 4.00000000000000000000, 4.00000000000000000000, 4.00000000000000000000, 4.00000000000000000000, 2.00000000000000000000, 4.00000000000000000000, 4.00000000000000000000, 4.00000000000000000000, 4.00000000000000000000, 4.00000000000000000000, 4.00000000000000000000, 4.00000000000000000000
36.00000000000000000000, 0.00000000000000000000, 4293.84619140625000000000, 3729.23071289062500000000, 4230.76904296875000000000, 4310.76904296875000000000, 4271.79492187500000000000, 4280.51269531250000000000, 4491.28173828125000000000, 4063.58959960937500000000, 3704.10253906250000000000, 4148.20507812500000000000, 4408.71777343750000000000, 4494.87158203125000000000, 4425.64111328125000000000, 4075.89721679687500000000, 0.00000000000000000000, 1683.00000000000000000000, 1694.00000000000000000000, 0.00000000000000000000, 0.00000000000000000000, 1475.00000000000000000000, 270.00000000000000000000, 4.00000000000000000000, 4.00000000000000000000, 4.00000000000000000000, 4.00000000000000000000, 4.00000000000000000000, 4.00000000000000000000, 4.00000000000000000000, 4.00000000000000000000, 2.00000000000000000000, 4.00000000000000000000, 4.00000000000000000000, 4.00000000000000000000, 4.00000000000000000000, 4.00000000000000000000, 4.00000000000000000000, 4.00000000000000000000
37.00000000000000000000, 0.00000000000000000000, 4294.35888671875000000000, 3731.28198242187500000000, 4236.41015625000000000000, 4310.76904296875000000000, 4262.05126953125000000000, 4280.51269531250000000000, 4491.28173828125000000000, 4068.20507812500000000000, 3705.12817382812500000000, 4152.82031250000000000000, 4412.82031250000000000000, 4492.82031250000000000000, 4425.64111328125000000000, 4072.82031250000000000000, 0.00000000000000000000, 1682.00000000000000000000, 1693.00000000000000000000, 0.00000000000000000000, 0.00000000000000000000, 1475.00000000000000000000, 278.00000000000000000000, 4.00000000000000000000, 4.00000000000000000000, 4.00000000000000000000, 4.00000000000000000000, 4.00000000000000000000, 4.00000000000000000000, 4.00000000000000000000, 4.00000000000000000000, 2.00000000000000000000, 4.00000000000000000000, 4.00000000000000000000, 4.00000000000000000000, 4.00000000000000000000, 4.00000000000000000000, 4.00000000000000000000, 4.00000000000000000000
38.00000000000000000000, 0.00000000000000000000, 4292.82031250000000000000, 3736.92309570312500000000, 4241.53857421875000000000, 4314.87158203125000000000, 4264.61523437500000000000, 4282.05126953125000000000, 4490.76904296875000000000, 4066.66650390625000000000, 3706.15380859375000000000, 4154.87158203125000000000, 4413.33300781250000000000, 4504.10253906250000000000, 4426.66650390625000000000, 4072.30761718750000000000, 0.00000000000000000000, 1683.00000000000000000000, 1693.00000000000000000000, 0.00000000000000000000, 0.00000000000000000000, 1475.00000000000000000000, 286.00000000000000000000, 4.00000000000000000000, 4.00000000000000000000, 4.00000000000000000000, 4.00000000000000000000, 4.00000000000000000000, 4.00000000000000000000, 4.00000000000000000000, 4.00000000000000000000, 2.00000000000000000000, 4.00000000000000000000, 4.00000000000000000000, 4.00000000000000000000, 4.00000000000000000000, 4.00000000000000000000, 4.00000000000000000000, 4.00000000000000000000
39.00000000000000000000, 0.00000000000000000000, 4291.79492187500000000000, 3741.02563476562500000000, 4240.51269531250000000000, 4321.53857421875000000000, 4267.17919921875000000000, 4282.05126953125000000000, 4493.33300781250000000000, 4071.79467773437500000000, 3706.66650390625000000000, 4153.84619140625000000000, 4412.82031250000000000000, 4507.69238281250000000000, 4428.20507812500000000000, 4072.82031250000000000000, 0.00000000000000000000, 1682.00000000000000000000, 1692.00000000000000000000, 0.00000000000000000000, 0.00000000000000000000, 1475.00000000000000000000, 294.00000000000000000000, 4.00000000000000000000, 4.00000000000000000000, 4.00000000000000000000, 4.00000000000000000000, 4.00000000000000000000, 4.00000000000000000000, 4.00000000000000000000, 4.00000000000000000000, 2.00000000000000000000, 4.00000000000000000000, 4.00000000000000000000, 4.00000000000000000000, 4.00000000000000000000, 4.00000000000000000000, 4.00000000000000000000, 4.00000000000000000000
40.00000000000000000000, 0.00000000000000000000, 4291.79492187500000000000, 3737.43579101562500000000, 4233.84619140625000000000, 4317.43603515625000000000, 4262.05126953125000000000, 4280.00000000000000000000, 4492.30761718750000000000, 4075.89721679687500000000, 3708.71777343750000000000, 4153.84619140625000000000, 4413.33300781250000000000, 4500.51269531250000000000, 4426.66650390625000000000, 4069.74340820312500000000, 0.00000000000000000000, 1682.00000000000000000000, 1692.00000000000000000000, 0.00000000000000000000, 0.00000000000000000000, 1475.00000000000000000000, 302.00000000000000000000, 4.00000000000000000000, 4.00000000000000000000, 4.00000000000000000000, 4.00000000000000000000, 4.00000000000000000000, 4.00000000000000000000, 4.00000000000000000000, 4.00000000000000000000, 2.00000000000000000000, 4.00000000000000000000, 4.00000000000000000000, 4.00000000000000000000, 4.00000000000000000000, 4.00000000000000000000, 4.00000000000000000000, 4.00000000000000000000
41.00000000000000000000, 0.00000000000000000000, 4288.71777343750000000000, 3732.82031250000000000000, 4231.28173828125000000000, 4308.20507812500000000000, 4263.58984375000000000000, 4280.00000000000000000000, 4490.25634765625000000000, 4067.69213867187500000000, 3709.74340820312500000000, 4153.84619140625000000000, 4412.82031250000000000000, 4502.56396484375000000000, 4423.58984375000000000000, 4067.69213867187500000000, 0.00000000000000000000, 1682.00000000000000000000, 1691.00000000000000000000, 0.00000000000000000000, 0.00000000000000000000, 1475.00000000000000000000, 309.00000000000000000000, 4.00000000000000000000, 4.00000000000000000000, 4.00000000000000000000, 4.00000000000000000000, 4.00000000000000000000, 4.00000000000000000000, 4.00000000000000000000, 4.00000000000000000000, 2.00000000000000000000, 4.00000000000000000000, 4.00000000000000000000, 4.00000000000000000000, 4.00000000000000000000, 4.00000000000000000000, 4.00000000000000000000, 4.00000000000000000000
42.00000000000000000000, 0.00000000000000000000, 4282.56396484375000000000, 3728.71777343750000000000, 4231.28173828125000000000, 4306.15380859375000000000, 4262.05126953125000000000, 4279.48730468750000000000, 4495.89746093750000000000, 4065.64086914062500000000, 3705.64086914062500000000, 4152.82031250000000000000, 4413.33300781250000000000, 4504.61523437500000000000, 4424.10253906250000000000, 4066.15380859375000000000, 0.00000000000000000000, 1682.00000000000000000000, 1692.00000000000000000000, 0.00000000000000000000, 0.00000000000000000000, 1475.00000000000000000000, 317.00000000000000000000, 4.00000000000000000000, 4.00000000000000000000, 4.00000000000000000000, 4.00000000000000000000, 4.00000000000000000000, 4.00000000000000000000, 4.00000000000000000000, 4.00000000000000000000, 2.00000000000000000000, 4.00000000000000000000, 4.00000000000000000000, 4.00000000000000000000, 4.00000000000000000000, 4.00000000000000000000, 4.00000000000000000000, 4.00000000000000000000
43.00000000000000000000, 0.00000000000000000000, 4276.92285156250000000000, 3725.64086914062500000000, 4229.23046875000000000000, 4307.69238281250000000000, 4252.30761718750000000000, 4278.97412109375000000000, 4499.48730468750000000000, 4075.89721679687500000000, 3704.61523437500000000000, 4150.76904296875000000000, 4411.79492187500000000000, 4493.33300781250000000000, 4427.17919921875000000000, 4061.53833007812500000000, 0.00000000000000000000, 1682.00000000000000000000, 1691.00000000000000000000, 0.00000000000000000000, 0.00000000000000000000, 1475.00000000000000000000, 325.00000000000000000000, 4.00000000000000000000, 4.00000000000000000000, 4.00000000000000000000, 4.00000000000000000000, 4.00000000000000000000, 4.00000000000000000000, 4.00000000000000000000, 4.00000000000000000000, 2.00000000000000000000, 4.00000000000000000000, 4.00000000000000000000, 4.00000000000000000000, 4.00000000000000000000, 4.00000000000000000000, 4.00000000000000000000, 4.00000000000000000000
44.00000000000000000000, 0.00000000000000000000, 4278.97412109375000000000, 3730.25634765625000000000, 4230.25634765625000000000, 4307.69238281250000000000, 4256.41015625000000000000, 4278.97412109375000000000, 4493.84619140625000000000, 4076.92309570312500000000, 3712.30761718750000000000, 4150.76904296875000000000, 4413.33300781250000000000, 4493.33300781250000000000, 4428.20507812500000000000, 4061.53833007812500000000, 0.00000000000000000000, 1681.00000000000000000000, 1691.00000000000000000000, 0.00000000000000000000, 0.00000000000000000000, 1475.00000000000000000000, 332.00000000000000000000, 4.00000000000000000000, 4.00000000000000000000, 4.00000000000000000000, 4.00000000000000000000, 4.00000000000000000000, 4.00000000000000000000, 4.00000000000000000000, 4.00000000000000000000, 2.00000000000000000000, 4.00000000000000000000, 4.00000000000000000000, 4.00000000000000000000, 4.00000000000000000000, 4.00000000000000000000, 4.00000000000000000000, 4.00000000000000000000
45.00000000000000000000, 0.00000000000000000000, 4287.17919921875000000000, 3737.43579101562500000000, 4233.33300781250000000000, 4313.33300781250000000000, 4266.15380859375000000000, 4277.94873046875000000000, 4490.25634765625000000000, 4068.71777343750000000000, 3716.41015625000000000000, 4154.35888671875000000000, 4421.02539062500000000000, 4505.12792968750000000000, 4436.41015625000000000000, 4069.74340820312500000000, 0.00000000000000000000, 1683.00000000000000000000, 1689.00000000000000000000, 0.00000000000000000000, 0.00000000000000000000, 1475.00000000000000000000, 341.00000000000000000000, 4.00000000000000000000, 4.00000000000000000000, 4.00000000000000000000, 4.00000000000000000000, 4.00000000000000000000, 4.00000000000000000000, 4.00000000000000000000, 4.00000000000000000000, 2.00000000000000000000, 4.00000000000000000000, 4.00000000000000000000, 4.00000000000000000000, 4.00000000000000000000, 4.00000000000000000000, 4.00000000000000000000, 4.00000000000000000000
46.00000000000000000000, 0.00000000000000000000, 4289.74365234375000000000, 3738.97436523437500000000, 4234.35888671875000000000, 4318.97412109375000000000, 4265.12792968750000000000, 4276.41015625000000000000, 4492.30761718750000000000, 4080.00000000000000000000, 3714.35888671875000000000, 4156.92285156250000000000, 4425.64111328125000000000, 4510.25634765625000000000, 4444.61523437500000000000, 4077.94873046875000000000, 0.00000000000000000000, 1681.00000000000000000000, 1689.00000000000000000000, 0.00000000000000000000, 0.00000000000000000000, 1475.00000000000000000000, 349.00000000000000000000, 4.00000000000000000000, 4.00000000000000000000, 4.00000000000000000000, 4.00000000000000000000, 4.00000000000000000000, 4.00000000000000000000, 4.00000000000000000000, 4.00000000000000000000, 2.00000000000000000000, 4.00000000000000000000, 4.00000000000000000000, 4.00000000000000000000, 4.00000000000000000000, 4.00000000000000000000, 4.00000000000000000000, 4.00000000000000000000
47.00000000000000000000, 0.00000000000000000000, 4285.12792968750000000000, 3736.92309570312500000000, 4236.92285156250000000000, 4318.46142578125000000000, 4262.05126953125000000000, 4276.92285156250000000000, 4490.25634765625000000000, 4091.79467773437500000000, 3715.38452148437500000000, 4155.38427734375000000000, 4422.56396484375000000000, 4508.71777343750000000000, 4439.48730468750000000000, 4078.97436523437500000000, 0.00000000000000000000, 1682.00000000000000000000, 1690.00000000000000000000, 0.00000000000000000000, 0.00000000000000000000, 1475.00000000000000000000, 356.00000000000000000000, 4.00000000000000000000, 4.00000000000000000000, 4.00000000000000000000, 4.00000000000000000000, 4.00000000000000000000, 4.00000000000000000000, 4.00000000000000000000, 4.00000000000000000000, 2.00000000000000000000, 4.00000000000000000000, 4.00000000000000000000, 4.00000000000000000000, 4.00000000000000000000, 4.00000000000000000000, 4.00000000000000000000, 4.00000000000000000000
48.00000000000000000000, 0.00000000000000000000, 4280.51269531250000000000, 3734.35888671875000000000, 4237.43603515625000000000, 4318.97412109375000000000, 4266.15380859375000000000, 4277.43603515625000000000, 4486.15380859375000000000, 4076.92309570312500000000, 3714.87158203125000000000, 4152.30761718750000000000, 4414.35888671875000000000, 4503.07666015625000000000, 4427.69238281250000000000, 4072.30761718750000000000, 0.00000000000000000000, 1683.00000000000000000000, 1689.00000000000000000000, 0.00000000000000000000, 0.00000000000000000000, 1475.00000000000000000000, 364.00000000000000000000, 4.00000000000000000000, 4.00000000000000000000, 4.00000000000000000000, 4.00000000000000000000, 4.00000000000000000000, 4.00000000000000000000, 4.00000000000000000000, 4.00000000000000000000, 2.00000000000000000000, 4.00000000000000000000, 4.00000000000000000000, 4.00000000000000000000, 4.00000000000000000000, 4.00000000000000000000, 4.00000000000000000000, 4.00000000000000000000
49.00000000000000000000, 0.00000000000000000000, 4279.48730468750000000000, 3734.35888671875000000000, 4233.33300781250000000000, 4323.58984375000000000000, 4271.28173828125000000000, 4280.00000000000000000000, 4487.69238281250000000000, 4066.15380859375000000000, 3710.76904296875000000000, 4147.17919921875000000000, 4407.69238281250000000000, 4492.30761718750000000000, 4424.10253906250000000000, 4061.02563476562500000000, 0.00000000000000000000, 1682.00000000000000000000, 1690.00000000000000000000, 0.00000000000000000000, 0.00000000000000000000, 1475.00000000000000000000, 372.00000000000000000000, 4.00000000000000000000, 4.00000000000000000000, 4.00000000000000000000, 4.00000000000000000000, 4.00000000000000000000, 4.00000000000000000000, 4.00000000000000000000, 4.00000000000000000000, 2.00000000000000000000, 4.00000000000000000000, 4.00000000000000000000, 4.00000000000000000000, 4.00000000000000000000, 4.00000000000000000000, 4.00000000000000000000, 4.00000000000000000000
50.00000000000000000000, 0.00000000000000000000, 4283.07666015625000000000, 3736.92309570312500000000, 4234.87158203125000000000, 4324.10253906250000000000, 4271.28173828125000000000, 4282.56396484375000000000, 4490.76904296875000000000, 4073.84594726562500000000, 3707.69213867187500000000, 4142.56396484375000000000, 4404.10253906250000000000, 4490.25634765625000000000, 4425.12792968750000000000, 4057.94873046875000000000, 0.00000000000000000000, 1683.00000000000000000000, 1690.00000000000000000000, 0.00000000000000000000, 0.00000000000000000000, 1475.00000000000000000000, 380.00000000000000000000, 4.00000000000000000000, 4.00000000000000000000, 4.00000000000000000000, 4.00000000000000000000, 4.00000000000000000000, 4.00000000000000000000, 4.00000000000000000000, 4.00000000000000000000, 2.00000000000000000000, 4.00000000000000000000, 4.00000000000000000000, 4.00000000000000000000, 4.00000000000000000000, 4.00000000000000000000, 4.00000000000000000000, 4.00000000000000000000
51.00000000000000000000, 0.00000000000000000000, 4282.05126953125000000000, 3733.84594726562500000000, 4234.87158203125000000000, 4320.00000000000000000000, 4266.15380859375000000000, 4281.53857421875000000000, 4489.74365234375000000000, 4069.74340820312500000000, 3702.56396484375000000000, 4134.87158203125000000000, 4396.92285156250000000000, 4491.28173828125000000000, 4420.51269531250000000000, 4058.97436523437500000000, 0.00000000000000000000, 1683.00000000000000000000, 1691.00000000000000000000, 0.00000000000000000000, 0.00000000000000000000, 1475.00000000000000000000, 388.00000000000000000000, 4.00000000000000000000, 4.00000000000000000000, 4.00000000000000000000, 4.00000000000000000000, 4.00000000000000000000, 4.00000000000000000000, 4.00000000000000000000, 4.00000000000000000000, 2.00000000000000000000, 4.00000000000000000000, 4.00000000000000000000, 4.00000000000000000000, 4.00000000000000000000, 4.00000000000000000000, 4.00000000000000000000, 4.00000000000000000000
52.00000000000000000000, 0.00000000000000000000, 4270.25634765625000000000, 3720.51269531250000000000, 4222.05126953125000000000, 4312.30761718750000000000, 4264.10253906250000000000, 4280.00000000000000000000, 4487.69238281250000000000, 4055.38452148437500000000, 3698.46142578125000000000, 4126.15380859375000000000, 4389.74365234375000000000, 4478.97412109375000000000, 4410.76904296875000000000, 4050.76904296875000000000, 0.00000000000000000000, 1684.00000000000000000000, 1689.00000000000000000000, 0.00000000000000000000, 0.00000000000000000000, 1475.00000000000000000000, 395.00000000000000000000, 4.00000000000000000000, 4.00000000000000000000, 4.00000000000000000000, 4.00000000000000000000, 4.00000000000000000000, 4.00000000000000000000, 4.00000000000000000000, 4.00000000000000000000, 2.00000000000000000000, 4.00000000000000000000, 4.00000000000000000000, 4.00000000000000000000, 4.00000000000000000000, 4.00000000000000000000, 4.00000000000000000000, 4.00000000000000000000
53.00000000000000000000, 0.00000000000000000000, 4258.97412109375000000000, 3713.84594726562500000000, 4215.89746093750000000000, 4305.64111328125000000000, 4265.12792968750000000000, 4281.02539062500000000000, 4489.23046875000000000000, 4057.94873046875000000000, 3698.46142578125000000000, 4128.20507812500000000000, 4389.74365234375000000000, 4471.28173828125000000000, 4407.69238281250000000000, 4045.64086914062500000000, 0.00000000000000000000, 1684.00000000000000000000, 1692.00000000000000000000, 0.00000000000000000000, 0.00000000000000000000, 1475.00000000000000000000, 403.00000000000000000000, 4.00000000000000000000, 4.00000000000000000000, 4.00000000000000000000, 4.00000000000000000000, 4.00000000000000000000, 4.00000000000000000000, 4.00000000000000000000, 4.00000000000000000000, 2.00000000000000000000, 4.00000000000000000000, 4.00000000000000000000, 4.00000000000000000000, 4.00000000000000000000, 4.00000000000000000000, 4.00000000000000000000, 4.00000000000000000000
54.00000000000000000000, 0.00000000000000000000, 4263.07666015625000000000, 3724.61523437500000000000, 4225.12792968750000000000, 4312.82031250000000000000, 4263.07666015625000000000, 4281.02539062500000000000, 4490.76904296875000000000, 4069.74340820312500000000, 3701.02563476562500000000, 4135.38427734375000000000, 4396.41015625000000000000, 4481.53857421875000000000, 4417.43554687500000000000, 4053.84594726562500000000, 0.00000000000000000000, 1685.00000000000000000000, 1692.00000000000000000000, 0.00000000000000000000, 0.00000000000000000000, 1475.00000000000000000000, 411.00000000000000000000, 4.00000000000000000000, 4.00000000000000000000, 4.00000000000000000000, 4.00000000000000000000, 4.00000000000000000000, 4.00000000000000000000, 4.00000000000000000000, 4.00000000000000000000, 2.00000000000000000000, 4.00000000000000000000, 4.00000000000000000000, 4.00000000000000000000, 4.00000000000000000000, 4.00000000000000000000, 4.00000000000000000000, 4.00000000000000000000
55.00000000000000000000, 0.00000000000000000000, 4280.51269531250000000000, 3741.02563476562500000000, 4237.94873046875000000000, 4325.12792968750000000000, 4267.17919921875000000000, 4283.07666015625000000000, 4490.25634765625000000000, 4072.30761718750000000000, 3706.15380859375000000000, 4141.53857421875000000000, 4403.07666015625000000000, 4494.87158203125000000000, 4428.71777343750000000000, 4063.58959960937500000000, 0.00000000000000000000, 1683.00000000000000000000, 1692.00000000000000000000, 0.00000000000000000000, 0.00000000000000000000, 1475.00000000000000000000, 419.00000000000000000000, 4.00000000000000000000, 4.00000000000000000000, 4.00000000000000000000, 4.00000000000000000000, 4.00000000000000000000, 4.00000000000000000000, 4.00000000000000000000, 4.00000000000000000000, 2.00000000000000000000, 4.00000000000000000000, 4.00000000000000000000, 4.00000000000000000000, 4.00000000000000000000, 4.00000000000000000000, 4.00000000000000000000, 4.00000000000000000000
56.00000000000000000000, 0.00000000000000000000, 4290.76904296875000000000, 3750.25634765625000000000, 4248.71777343750000000000, 4330.76904296875000000000, 4277.43603515625000000000, 4290.25634765625000000000, 4490.76904296875000000000, 4078.46142578125000000000, 3713.33325195312500000000, 4150.25634765625000000000, 4415.89746093750000000000, 4507.69238281250000000000, 4440.00000000000000000000, 4069.23071289062500000000, 0.00000000000000000000, 1686.00000000000000000000, 1691.00000000000000000000, 0.00000000000000000000, 0.00000000000000000000, 1475.00000000000000000000, 427.00000000000000000000, 4.00000000000000000000, 4.00000000000000000000, 4.00000000000000000000, 4.00000000000000000000, 4.00000000000000000000, 4.00000000000000000000, 4.00000000000000000000, 4.00000000000000000000, 2.00000000000000000000, 4.00000000000000000000, 4.00000000000000000000, 4.00000000000000000000, 4.00000000000000000000, 4.00000000000000000000, 4.00000000000000000000, 4.00000000000000000000
57.00000000000000000000, 0.00000000000000000000, 4285.64111328125000000000, 3746.15380859375000000000, 4251.79492187500000000000, 4327.69238281250000000000, 4275.89746093750000000000, 4295.89746093750000000000, 4491.79492187500000000000, 4087.17944335937500000000, 3715.89746093750000000000, 4156.41015625000000000000, 4426.66650390625000000000, 4514.35888671875000000000, 4448.20507812500000000000, 4072.82031250000000000000, 0.00000000000000000000, 1685.00000000000000000000, 1690.00000000000000000000, 0.00000000000000000000, 0.00000000000000000000, 1475.00000000000000000000, 434.00000000000000000000, 4.00000000000000000000, 4.00000000000000000000, 4.00000000000000000000, 4.00000000000000000000, 4.00000000000000000000, 4.00000000000000000000, 4.00000000000000000000, 4.00000000000000000000, 2.00000000000000000000, 4.00000000000000000000, 4.00000000000000000000, 4.00000000000000000000, 4.00000000000000000000, 4.00000000000000000000, 4.00000000000000000000, 4.00000000000000000000
58.00000000000000000000, 0.00000000000000000000, 4279.48730468750000000000, 3734.87158203125000000000, 4248.20507812500000000000, 4322.56396484375000000000, 4273.84619140625000000000, 4297.43603515625000000000, 4493.33300781250000000000, 4088.71777343750000000000, 3714.87158203125000000000, 4154.87158203125000000000, 4423.58984375000000000000, 4512.30761718750000000000, 4448.20507812500000000000, 4074.87158203125000000000, 0.00000000000000000000, 1685.00000000000000000000, 1690.00000000000000000000, 0.00000000000000000000, 0.00000000000000000000, 1475.00000000000000000000, 442.00000000000000000000, 4.00000000000000000000, 4.00000000000000000000, 4.00000000000000000000, 4.00000000000000000000, 4.00000000000000000000, 4.00000000000000000000, 4.00000000000000000000, 4.00000000000000000000, 2.00000000000000000000, 4.00000000000000000000, 4.00000000000000000000, 4.00000000000000000000, 4.00000000000000000000, 4.00000000000000000000, 4.00000000000000000000, 4.00000000000000000000
59.00000000000000000000, 0.00000000000000000000, 4276.92285156250000000000, 3731.28198242187500000000, 4243.07666015625000000000, 4320.00000000000000000000, 4276.41015625000000000000, 4298.46142578125000000000, 4493.84619140625000000000, 4083.07690429687500000000, 3714.87158203125000000000, 4152.82031250000000000000, 4416.92285156250000000000, 4507.69238281250000000000, 4444.10253906250000000000, 4070.25634765625000000000, 0.00000000000000000000, 1684.00000000000000000000, 1689.00000000000000000000, 0.00000000000000000000, 0.00000000000000000000, 1475.00000000000000000000, 450.00000000000000000000, 4.00000000000000000000, 4.00000000000000000000, 4.00000000000000000000, 4.00000000000000000000, 4.00000000000000000000, 4.00000000000000000000, 4.00000000000000000000, 4.00000000000000000000, 2.00000000000000000000, 4.00000000000000000000, 4.00000000000000000000, 4.00000000000000000000, 4.00000000000000000000, 4.00000000000000000000, 4.00000000000000000000, 4.00000000000000000000
